Data from HighRes_H2_15_09_11_07_2024_HR4C61891__110__15-11-07-401.txt Node

Date: Thu Nov 07 15:11:07 EST 2024
User: crc00042
Spectrometer: HR4C6189
Trigger mode: 4
Integration Time (sec): 1.000000E-1
Scans to average: 1
Electric dark correction enabled: true
Nonlinearity correction enabled: false
Boxcar width: 0
XAxis mode: Wavelengths
Number of Pixels in Spectrum: 3648
>>>>>Begin Spectral Data<<<<<
639.567	-54
639.602	-54
639.636	-54
639.67	-29
639.704	-25
639.738	-3
639.773	18
639.807	-19
639.841	-11
639.875	11
639.909	-9
639.943	-11
639.978	-3
640.012	5
640.046	4
640.08	8
640.114	12
640.148	-2
640.182	-19
640.217	-11
640.251	16
640.285	21
640.319	-8
640.353	-4
640.387	-7
640.421	-3
640.455	-13
640.49	-10
640.524	0
640.558	-2
640.592	-5
640.626	-10
640.66	-12
640.694	1
640.728	6
640.762	1
640.796	5
640.83	-3
640.865	-18
640.899	5
640.933	-5
640.967	-2
641.001	3
641.035	5
641.069	0
641.103	-13
641.137	-7
641.171	-8
641.205	-4
641.239	8
641.273	19
641.307	5
641.341	-7
641.375	8
641.409	-1
641.443	-12
641.477	3
641.511	11
641.545	-4
641.579	-3
641.614	13
641.648	11
641.682	-1
641.716	2
641.75	20
641.784	0
641.818	0
641.852	3
641.886	-7
641.919	15
641.953	-8
641.987	-22
642.021	0
642.055	1
642.089	-3
642.123	-22
642.157	-2
642.191	-13
642.225	-8
642.259	-10
642.293	-8
642.327	-7
642.361	1
642.395	8
642.429	12
642.463	3
642.497	2
642.531	19
642.565	-19
642.599	6
642.633	-19
642.666	1
642.7	13
642.734	2
642.768	-17
642.802	-7
642.836	-3
642.87	-18
642.904	-16
642.938	5
642.972	-5
643.005	-2
643.039	23
643.073	-12
643.107	-1
643.141	2
643.175	-11
643.209	-3
643.243	-1
643.276	3
643.31	8
643.344	-7
643.378	9
643.412	6
643.446	-8
643.48	-8
643.513	0
643.547	-21
643.581	-5
643.615	10
643.649	8
643.683	1
643.716	-14
643.75	7
643.784	-7
643.818	8
643.852	-5
643.886	-20
643.919	8
643.953	9
643.987	-1
644.021	8
644.055	0
644.088	-1
644.122	-6
644.156	-1
644.19	9
644.224	4
644.257	6
644.291	6
644.325	-3
644.359	-2
644.392	12
644.426	17
644.46	0
644.494	4
644.527	-16
644.561	8
644.595	10
644.629	7
644.662	-12
644.696	6
644.73	7
644.764	3
644.797	-3
644.831	1
644.865	14
644.899	3
644.932	19
644.966	-11
645	22
645.033	29
645.067	-14
645.101	-5
645.135	-23
645.168	-9
645.202	-12
645.236	1
645.269	-1
645.303	-3
645.337	-2
645.37	-15
645.404	-10
645.438	-13
645.471	-4
645.505	2
645.539	-4
645.572	-1
645.606	-2
645.64	6
645.673	1
645.707	12
645.741	-4
645.774	-10
645.808	13
645.842	-5
645.875	1
645.909	-23
645.943	-12
645.976	2
646.01	2
646.043	12
646.077	22
646.111	14
646.144	15
646.178	4
646.212	1
646.245	-8
646.279	2
646.312	10
646.346	3
646.38	-12
646.413	-23
646.447	-6
646.48	-11
646.514	9
646.547	1
646.581	0
646.615	4
646.648	-10
646.682	7
646.715	8
646.749	1
646.782	-5
646.816	-1
646.85	11
646.883	4
646.917	17
646.95	-1
646.984	-1
647.017	-8
647.051	-12
647.084	-15
647.118	-22
647.151	7
647.185	-11
647.218	-13
647.252	18
647.285	4
647.319	-15
647.353	-9
647.386	18
647.42	8
647.453	7
647.487	-2
647.52	-14
647.553	-1
647.587	-8
647.62	2
647.654	6
647.687	2
647.721	7
647.754	5
647.788	1
647.821	-8
647.855	5
647.888	12
647.922	10
647.955	16
647.989	0
648.022	-9
648.055	5
648.089	3
648.122	32
648.156	-4
648.189	2
648.223	16
648.256	15
648.29	-1
648.323	15
648.356	19
648.39	5
648.423	2
648.457	1
648.49	-13
648.523	5
648.557	2
648.59	5
648.624	-12
648.657	6
648.69	22
648.724	7
648.757	11
648.791	6
648.824	2
648.857	11
648.891	-12
648.924	1
648.957	13
648.991	-7
649.024	11
649.057	3
649.091	-10
649.124	10
649.158	11
649.191	11
649.224	5
649.258	8
649.291	17
649.324	5
649.358	6
649.391	-1
649.424	1
649.458	-10
649.491	5
649.524	1
649.557	-12
649.591	-12
649.624	4
649.657	-10
649.691	-9
649.724	3
649.757	-6
649.791	-9
649.824	6
649.857	11
649.89	8
649.924	-9
649.957	-8
649.99	-14
650.023	7
650.057	-7
650.09	-8
650.123	-8
650.157	20
650.19	13
650.223	7
650.256	-8
650.29	-1
650.323	-12
650.356	7
650.389	3
650.423	-9
650.456	-5
650.489	-4
650.522	6
650.555	9
650.589	13
650.622	0
650.655	1
650.688	-3
650.721	16
650.755	3
650.788	25
650.821	4
650.854	5
650.887	-2
650.921	-16
650.954	-2
650.987	-3
651.02	0
651.053	-13
651.087	-29
651.12	11
651.153	6
651.186	-4
651.219	-12
651.252	8
651.286	5
651.319	-8
651.352	-8
651.385	-2
651.418	-7
651.451	-1
651.484	5
651.518	-6
651.551	17
651.584	-14
651.617	11
651.65	-13
651.683	2
651.716	-4
651.749	-1
651.783	7
651.816	-8
651.849	8
651.882	14
651.915	9
651.948	-3
651.981	-5
652.014	10
652.047	-1
652.08	-10
652.114	-3
652.147	-12
652.18	-9
652.213	20
652.246	-13
652.279	-7
652.312	11
652.345	-4
652.378	17
652.411	26
652.444	6
652.477	-3
652.51	-9
652.543	-14
652.576	-7
652.609	-18
652.642	-17
652.675	5
652.709	2
652.742	16
652.775	7
652.808	6
652.841	-11
652.874	-6
652.907	-1
652.94	-7
652.973	1
653.006	1
653.039	10
653.072	-10
653.105	-11
653.138	-22
653.171	-9
653.204	-15
653.237	0
653.27	-11
653.303	1
653.336	11
653.368	-3
653.401	-1
653.434	-2
653.467	5
653.5	-6
653.533	0
653.566	-4
653.599	11
653.632	5
653.665	0
653.698	-7
653.731	2
653.764	8
653.797	4
653.83	3
653.863	5
653.896	-9
653.929	-17
653.961	7
653.994	-7
654.027	-18
654.06	-5
654.093	19
654.126	4
654.159	-10
654.192	10
654.225	-11
654.258	-8
654.29	3
654.323	1
654.356	1
654.389	-11
654.422	6
654.455	-7
654.488	-8
654.521	-28
654.553	-9
654.586	22
654.619	5
654.652	-7
654.685	9
654.718	5
654.751	3
654.783	-6
654.816	9
654.849	16
654.882	-1
654.915	-19
654.948	-2
654.98	4
655.013	7
655.046	6
655.079	-18
655.112	6
655.144	7
655.177	8
655.21	7
655.243	21
655.276	10
655.308	9
655.341	-12
655.374	6
655.407	2
655.44	-3
655.472	3
655.505	3
655.538	12
655.571	21
655.603	7
655.636	9
655.669	17
655.702	26
655.734	6
655.767	-2
655.8	14
655.833	32
655.865	37
655.898	41
655.931	34
655.964	48
655.996	46
656.029	51
656.062	60
656.095	63
656.127	55
656.16	92
656.193	143
656.225	180
656.258	290
656.291	501
656.324	1106
656.356	3359
656.389	7567
656.422	6049
656.454	2092
656.487	689
656.52	248
656.552	114
656.585	66
656.618	47
656.65	36
656.683	5
656.716	16
656.748	4
656.781	8
656.814	-15
656.846	-3
656.879	1
656.912	5
656.944	-24
656.977	-13
657.01	-9
657.042	10
657.075	19
657.108	-7
657.14	4
657.173	4
657.205	21
657.238	9
657.271	2
657.303	-23
657.336	-13
657.369	-9
657.401	14
657.434	11
657.466	2
657.499	-7
657.532	1
657.564	19
657.597	-16
657.629	8
657.662	-7
657.694	-1
657.727	-19
657.76	1
657.792	2
657.825	-21
657.857	-4
657.89	7
657.922	20
657.955	-16
657.987	-13
658.02	16
658.053	6
658.085	-1
658.118	-10
658.15	4
658.183	21
658.215	-11
658.248	-2
658.28	-16
658.313	8
658.345	4
658.378	2
658.41	-8
658.443	1
658.475	4
658.508	-5
658.54	2
658.573	-28
658.605	-13
658.638	5
658.67	-21
658.703	-15
658.735	-13
658.768	-2
658.8	-5
658.833	13
658.865	-2
658.898	-14
658.93	-7
658.963	5
658.995	-16
659.028	6
659.06	-10
659.092	-5
659.125	-15
659.157	8
659.19	-18
659.222	-10
659.255	-2
659.287	-5
659.32	-8
659.352	-8
659.384	15
659.417	1
659.449	11
659.482	-3
659.514	-4
659.546	6
659.579	-16
659.611	-16
659.644	-2
659.676	-8
659.708	-7
659.741	-23
659.773	0
659.806	9
659.838	-6
659.87	-5
659.903	-1
659.935	7
659.967	-9
660	-1
660.032	-32
660.065	-4
660.097	-1
660.129	0
660.162	2
660.194	-15
660.226	-8
660.259	6
660.291	-24
660.323	-18
660.356	-1
660.388	-8
660.42	-3
660.453	5
660.485	-1
660.517	9
660.55	1
660.582	-10
660.614	4
660.647	3
660.679	-22
660.711	18
660.743	-26
660.776	-3
660.808	-20
660.84	-19
660.873	4
660.905	-6
660.937	10
660.969	-3
661.002	-10
661.034	1
661.066	-2
661.099	5
661.131	5
661.163	-15
661.195	-2
661.228	10
661.26	-3
661.292	-12
661.324	2
661.357	-8
661.389	-8
661.421	-6
661.453	-1
661.485	6
661.518	7
661.55	-4
661.582	-37
661.614	-7
661.647	6
661.679	-9
661.711	-8
661.743	4
661.775	4
661.808	36
661.84	-2
661.872	1
661.904	6
661.936	1
661.969	-11
662.001	-8
662.033	-5
662.065	-8
662.097	8
662.129	4
662.162	-20
662.194	6
662.226	10
662.258	-2
662.29	-10
662.322	-26
662.355	-10
662.387	0
662.419	0
662.451	-2
662.483	16
662.515	-7
662.547	10
662.58	-23
662.612	-12
662.644	-10
662.676	-7
662.708	12
662.74	-1
662.772	-1
662.804	5
662.836	8
662.869	-29
662.901	-8
662.933	-15
662.965	5
662.997	7
663.029	-12
663.061	-2
663.093	-1
663.125	15
663.157	8
663.189	-6
663.221	18
663.254	2
663.286	1
663.318	-8
663.35	-8
663.382	-6
663.414	8
663.446	1
663.478	2
663.51	11
663.542	-14
663.574	-5
663.606	-10
663.638	-30
663.67	-11
663.702	-4
663.734	-21
663.766	13
663.798	11
663.83	2
663.862	-6
663.894	-10
663.926	-1
663.958	1
663.99	-2
664.022	-2
664.054	-1
664.086	-13
664.118	-3
664.15	-18
664.182	-19
664.214	-7
664.246	18
664.278	2
664.31	18
664.342	6
664.374	-19
664.406	-7
664.438	-8
664.47	-2
664.502	11
664.534	14
664.566	-9
664.598	0
664.63	-17
664.662	-2
664.693	-10
664.725	-7
664.757	-8
664.789	-23
664.821	-4
664.853	5
664.885	5
664.917	-5
664.949	2
664.981	13
665.013	-3
665.045	-21
665.076	-10
665.108	-11
665.14	2
665.172	-9
665.204	-11
665.236	-18
665.268	19
665.3	4
665.331	-9
665.363	0
665.395	-11
665.427	-4
665.459	3
665.491	14
665.523	-7
665.555	-17
665.586	-10
665.618	-10
665.65	-6
665.682	4
665.714	4
665.746	-14
665.777	4
665.809	-7
665.841	-9
665.873	2
665.905	8
665.937	-8
665.968	-2
666	-1
666.032	0
666.064	-12
666.096	1
666.127	3
666.159	13
666.191	13
666.223	-7
666.255	6
666.286	-3
666.318	-9
666.35	22
666.382	-5
666.413	-7
666.445	-15
666.477	-29
666.509	-13
666.54	-4
666.572	-10
666.604	-5
666.636	-6
666.667	6
666.699	6
666.731	5
666.763	-16
666.794	-2
666.826	0
666.858	-19
666.89	8
666.921	1
666.953	1
666.985	13
667.017	20
667.048	1
667.08	1
667.112	-14
667.143	-5
667.175	-4
667.207	-6
667.238	9
667.27	13
667.302	-9
667.334	-16
667.365	15
667.397	1
667.429	-15
667.46	2
667.492	8
667.524	10
667.555	-5
667.587	4
667.619	1
667.65	-13
667.682	-9
667.714	4
667.745	5
667.777	-2
667.808	4
667.84	12
667.872	-12
667.903	21
667.935	-3
667.967	-4
667.998	-2
668.03	-1
668.061	3
668.093	8
668.125	2
668.156	5
668.188	-10
668.22	-8
668.251	2
668.283	4
668.314	16
668.346	-2
668.377	15
668.409	-1
668.441	-1
668.472	1
668.504	1
668.535	2
668.567	-6
668.599	-6
668.63	-5
668.662	3
668.693	5
668.725	0
668.756	3
668.788	-1
668.819	-3
668.851	-2
668.882	3
668.914	-3
668.946	-22
668.977	-18
669.009	-11
669.04	-24
669.072	7
669.103	1
669.135	-1
669.166	-13
669.198	2
669.229	11
669.261	0
669.292	-7
669.324	0
669.355	4
669.387	-7
669.418	-8
669.45	-13
669.481	0
669.513	3
669.544	1
669.576	-5
669.607	14
669.639	15
669.67	-2
669.701	5
669.733	-12
669.764	0
669.796	-11
669.827	-23
669.859	-18
669.89	-5
669.922	16
669.953	18
669.985	5
670.016	11
670.047	-4
670.079	2
670.11	7
670.142	-7
670.173	6
670.204	7
670.236	-5
670.267	-16
670.299	6
670.33	-3
670.362	5
670.393	-19
670.424	10
670.456	-16
670.487	-28
670.518	0
670.55	4
670.581	2
670.613	-10
670.644	-13
670.675	-18
670.707	-2
670.738	5
670.769	-1
670.801	-19
670.832	10
670.864	-4
670.895	6
670.926	-9
670.958	6
670.989	0
671.02	-4
671.052	-15
671.083	-14
671.114	-3
671.146	7
671.177	3
671.208	-22
671.24	-11
671.271	0
671.302	23
671.333	5
671.365	-9
671.396	-5
671.427	-3
671.459	18
671.49	4
671.521	4
671.553	-1
671.584	6
671.615	-3
671.646	4
671.678	-5
671.709	-22
671.74	-30
671.771	-7
671.803	0
671.834	-5
671.865	-9
671.896	-3
671.928	-4
671.959	-9
671.99	-11
672.021	2
672.053	14
672.084	6
672.115	-1
672.146	2
672.178	-9
672.209	2
672.24	5
672.271	28
672.303	7
672.334	-17
672.365	-22
672.396	-4
672.427	-2
672.459	-6
672.49	20
672.521	0
672.552	15
672.583	5
672.615	-10
672.646	1
672.677	-6
672.708	-13
672.739	4
672.77	13
672.802	2
672.833	1
672.864	2
672.895	-1
672.926	-8
672.957	-34
672.989	-10
673.02	8
673.051	6
673.082	6
673.113	-9
673.144	16
673.175	-4
673.206	-5
673.238	-22
673.269	1
673.3	-6
673.331	-6
673.362	-18
673.393	-3
673.424	6
673.455	1
673.487	-6
673.518	2
673.549	-12
673.58	1
673.611	-2
673.642	2
673.673	-4
673.704	2
673.735	-3
673.766	-10
673.797	-13
673.828	5
673.86	-1
673.891	1
673.922	-7
673.953	-13
673.984	11
674.015	-5
674.046	-12
674.077	0
674.108	-10
674.139	-1
674.17	-16
674.201	1
674.232	4
674.263	-18
674.294	0
674.325	-6
674.356	1
674.387	3
674.418	-7
674.449	-21
674.48	-4
674.511	-3
674.542	-3
674.573	-5
674.604	8
674.635	-10
674.666	17
674.697	13
674.728	2
674.759	3
674.79	-19
674.821	-1
674.852	1
674.883	-3
674.914	2
674.945	-2
674.976	5
675.007	-19
675.038	-20
675.069	-20
675.1	-4
675.131	9
675.162	-15
675.193	1
675.224	0
675.254	22
675.285	10
675.316	5
675.347	4
675.378	-4
675.409	-8
675.44	9
675.471	-5
675.502	-15
675.533	-2
675.564	9
675.595	-6
675.625	21
675.656	-1
675.687	-11
675.718	-8
675.749	-6
675.78	0
675.811	-2
675.842	4
675.873	2
675.903	-12
675.934	-5
675.965	-21
675.996	-28
676.027	-8
676.058	-19
676.089	-17
676.119	2
676.15	-3
676.181	6
676.212	1
676.243	-1
676.274	-4
676.304	19
676.335	-19
676.366	-7
676.397	-14
676.428	0
676.459	11
676.489	11
676.52	3
676.551	-10
676.582	-10
676.613	5
676.643	-23
676.674	15
676.705	2
676.736	-6
676.767	10
676.797	25
676.828	8
676.859	-11
676.89	-11
676.92	-7
676.951	5
676.982	21
677.013	-2
677.044	20
677.074	8
677.105	-16
677.136	-3
677.167	6
677.197	7
677.228	6
677.259	-14
677.289	-3
677.32	-27
677.351	-26
677.382	-4
677.412	1
677.443	7
677.474	-1
677.505	-8
677.535	1
677.566	-12
677.597	-25
677.627	1
677.658	8
677.689	-1
677.72	-3
677.75	-3
677.781	3
677.812	2
677.842	0
677.873	-10
677.904	-6
677.934	0
677.965	-3
677.996	1
678.026	-1
678.057	-2
678.088	-11
678.118	0
678.149	-6
678.18	3
678.21	-13
678.241	-1
678.272	-6
678.302	-3
678.333	2
678.363	3
678.394	0
678.425	-1
678.455	-23
678.486	2
678.517	-3
678.547	5
678.578	-1
678.608	-16
678.639	2
678.67	3
678.7	-25
678.731	-9
678.761	4
678.792	9
678.823	-11
678.853	-20
678.884	-14
678.914	4
678.945	-7
678.975	-13
679.006	-6
679.037	-16
679.067	10
679.098	10
679.128	-11
679.159	-23
679.189	2
679.22	-8
679.25	-13
679.281	11
679.312	4
679.342	-2
679.373	8
679.403	5
679.434	-2
679.464	-5
679.495	10
679.525	-2
679.556	-12
679.586	7
679.617	7
679.647	-7
679.678	2
679.708	-15
679.739	-6
679.769	-14
679.8	-2
679.83	-2
679.861	13
679.891	-7
679.922	-7
679.952	-2
679.983	-6
680.013	7
680.044	-15
680.074	10
680.105	20
680.135	5
680.165	4
680.196	5
680.226	17
680.257	11
680.287	-14
680.318	-8
680.348	-1
680.379	18
680.409	-1
680.439	-5
680.47	-7
680.5	-10
680.531	-10
680.561	-2
680.592	5
680.622	6
680.652	-10
680.683	-10
680.713	4
680.744	-16
680.774	-12
680.804	16
680.835	-10
680.865	-10
680.896	18
680.926	28
680.956	0
680.987	3
681.017	-12
681.047	-3
681.078	0
681.108	-16
681.139	4
681.169	9
681.199	-6
681.23	-2
681.26	1
681.29	6
681.321	-1
681.351	12
681.381	-16
681.412	-9
681.442	11
681.472	10
681.503	10
681.533	-6
681.563	-13
681.594	0
681.624	5
681.654	-2
681.685	1
681.715	-4
681.745	2
681.775	-2
681.806	-18
681.836	-8
681.866	-21
681.897	-7
681.927	-3
681.957	-3
681.987	1
682.018	3
682.048	0
682.078	2
682.109	12
682.139	17
682.169	21
682.199	-14
682.23	-13
682.26	-3
682.29	-9
682.32	16
682.351	-12
682.381	-7
682.411	-10
682.441	1
682.472	-2
682.502	-6
682.532	1
682.562	6
682.592	7
682.623	-9
682.653	-6
682.683	-18
682.713	6
682.743	3
682.774	-6
682.804	-6
682.834	5
682.864	-10
682.894	-6
682.925	0
682.955	10
682.985	-12
683.015	7
683.045	22
683.076	-5
683.106	-8
683.136	-16
683.166	-19
683.196	-23
683.226	-11
683.257	-5
683.287	-22
683.317	-3
683.347	-25
683.377	-22
683.407	2
683.437	13
683.468	13
683.498	-15
683.528	-3
683.558	3
683.588	-16
683.618	-11
683.648	-8
683.678	0
683.708	1
683.739	-20
683.769	-2
683.799	12
683.829	-2
683.859	1
683.889	17
683.919	6
683.949	0
683.979	-17
684.009	4
684.039	3
684.07	-3
684.1	7
684.13	-2
684.16	9
684.19	4
684.22	4
684.25	9
684.28	-7
684.31	18
684.34	1
684.37	-1
684.4	-15
684.43	6
684.46	10
684.49	8
684.52	2
684.55	7
684.58	-12
684.61	-12
684.64	8
684.67	2
684.7	-3
684.73	7
684.76	-1
684.79	20
684.82	-1
684.85	-6
684.88	-5
684.91	1
684.94	1
684.97	-10
685	-2
685.03	-16
685.06	-2
685.09	2
685.12	14
685.15	5
685.18	5
685.21	5
685.24	7
685.27	-2
685.3	-20
685.33	1
685.36	9
685.39	5
685.42	-16
685.45	4
685.48	-27
685.51	-8
685.54	9
685.569	11
685.599	3
685.629	2
685.659	-4
685.689	-15
685.719	-26
685.749	-15
685.779	-4
685.809	2
685.839	3
685.869	-4
685.898	22
685.928	4
685.958	6
685.988	11
686.018	3
686.048	10
686.078	9
686.108	27
686.137	-11
686.167	4
686.197	-14
686.227	5
686.257	25
686.287	7
686.317	-5
686.346	4
686.376	-16
686.406	-22
686.436	-4
686.466	1
686.496	0
686.525	-1
686.555	-8
686.585	2
686.615	28
686.645	3
686.675	-4
686.704	5
686.734	9
686.764	0
686.794	8
686.824	9
686.853	10
686.883	17
686.913	1
686.943	-4
686.973	-8
687.002	-3
687.032	7
687.062	-7
687.092	-3
687.121	1
687.151	12
687.181	-8
687.211	15
687.24	13
687.27	4
687.3	-3
687.33	9
687.359	-7
687.389	-4
687.419	-14
687.449	-9
687.478	-3
687.508	-2
687.538	-6
687.568	-1
687.597	-18
687.627	-13
687.657	4
687.686	0
687.716	15
687.746	-9
687.776	-1
687.805	-2
687.835	2
687.865	14
687.894	3
687.924	4
687.954	7
687.983	5
688.013	13
688.043	1
688.072	0
688.102	13
688.132	14
688.161	4
688.191	-2
688.221	23
688.25	-11
688.28	11
688.31	-9
688.339	-2
688.369	-12
688.399	-1
688.428	-16
688.458	-3
688.488	-3
688.517	-3
688.547	-14
688.576	40
688.606	8
688.636	-24
688.665	0
688.695	1
688.725	15
688.754	6
688.784	-3
688.813	16
688.843	-5
688.873	-4
688.902	-1
688.932	-5
688.961	6
688.991	5
689.02	6
689.05	-13
689.08	11
689.109	14
689.139	-4
689.168	-7
689.198	-7
689.227	3
689.257	-4
689.287	10
689.316	-8
689.346	-21
689.375	-18
689.405	16
689.434	-12
689.464	-7
689.493	-10
689.523	-5
689.552	-22
689.582	-7
689.611	-29
689.641	3
689.67	1
689.7	-2
689.73	8
689.759	-2
689.789	7
689.818	6
689.848	-15
689.877	14
689.906	-8
689.936	0
689.965	4
689.995	11
690.024	11
690.054	7
690.083	-2
690.113	-6
690.142	-18
690.172	-7
690.201	-11
690.231	4
690.26	14
690.29	9
690.319	4
690.348	-2
690.378	2
690.407	3
690.437	4
690.466	6
690.496	-1
690.525	5
690.555	-15
690.584	-11
690.613	-12
690.643	17
690.672	9
690.702	13
690.731	-3
690.76	1
690.79	-12
690.819	-9
690.849	-3
690.878	-17
690.907	10
690.937	24
690.966	3
690.996	6
691.025	-17
691.054	-13
691.084	-14
691.113	4
691.142	18
691.172	5
691.201	13
691.23	-3
691.26	11
691.289	20
691.319	-7
691.348	-6
691.377	7
691.407	4
691.436	-2
691.465	-5
691.495	-5
691.524	-11
691.553	-15
691.583	0
691.612	17
691.641	1
691.67	0
691.7	11
691.729	8
691.758	-16
691.788	-6
691.817	5
691.846	-8
691.876	0
691.905	1
691.934	3
691.963	-1
691.993	10
692.022	-11
692.051	-11
692.081	7
692.11	6
692.139	2
692.168	-2
692.198	8
692.227	1
692.256	-10
692.285	0
692.315	-11
692.344	7
692.373	-1
692.402	-16
692.432	-17
692.461	-2
692.49	-10
692.519	-2
692.548	1
692.578	0
692.607	-7
692.636	-20
692.665	-4
692.694	-3
692.724	5
692.753	11
692.782	16
692.811	-6
692.84	-11
692.87	9
692.899	-8
692.928	-13
692.957	4
692.986	9
693.016	-3
693.045	1
693.074	-12
693.103	-6
693.132	-6
693.161	2
693.191	-14
693.22	-10
693.249	-4
693.278	-2
693.307	8
693.336	-12
693.365	-5
693.395	10
693.424	4
693.453	-4
693.482	0
693.511	11
693.54	6
693.569	9
693.598	-15
693.628	1
693.657	6
693.686	15
693.715	19
693.744	4
693.773	6
693.802	-11
693.831	-10
693.86	10
693.889	2
693.919	0
693.948	3
693.977	-7
694.006	-8
694.035	-15
694.064	-19
694.093	1
694.122	-3
694.151	-13
694.18	9
694.209	22
694.238	4
694.267	16
694.296	18
694.325	1
694.354	4
694.383	-4
694.412	-12
694.441	-8
694.471	-10
694.5	-3
694.529	7
694.558	33
694.587	8
694.616	-10
694.645	-2
694.674	1
694.703	15
694.732	8
694.761	12
694.79	4
694.819	-14
694.848	-10
694.877	17
694.906	20
694.935	-13
694.963	28
694.992	-6
695.021	-6
695.05	2
695.079	-3
695.108	7
695.137	26
695.166	12
695.195	-16
695.224	9
695.253	-15
695.282	0
695.311	9
695.34	0
695.369	6
695.398	9
695.427	23
695.456	-6
695.485	2
695.513	-6
695.542	2
695.571	-8
695.6	32
695.629	10
695.658	15
695.687	12
695.716	10
695.745	9
695.774	-5
695.802	-2
695.831	10
695.86	6
695.889	-11
695.918	2
695.947	1
695.976	-14
696.005	-7
696.033	-5
696.062	2
696.091	1
696.12	4
696.149	10
696.178	2
696.207	4
696.235	-11
696.264	-3
696.293	-3
696.322	2
696.351	0
696.38	-5
696.408	8
696.437	0
696.466	0
696.495	3
696.524	0
696.553	5
696.581	9
696.61	9
696.639	-8
696.668	8
696.697	-5
696.725	8
696.754	1
696.783	11
696.812	5
696.84	3
696.869	8
696.898	-3
696.927	4
696.956	15
696.984	-4
697.013	7
697.042	3
697.071	6
697.099	17
697.128	9
697.157	2
697.186	-5
697.214	-9
697.243	3
697.272	-7
697.301	4
697.329	-3
697.358	4
697.387	15
697.415	10
697.444	10
697.473	2
697.502	-15
697.53	7
697.559	2
697.588	-2
697.616	-10
697.645	8
697.674	10
697.703	-1
697.731	-1
697.76	-6
697.789	3
697.817	-2
697.846	8
697.875	-6
697.903	21
697.932	12
697.961	0
697.989	-5
698.018	5
698.047	-8
698.075	0
698.104	2
698.133	0
698.161	-6
698.19	2
698.218	-10
698.247	5
698.276	-7
698.304	6
698.333	-3
698.362	5
698.39	4
698.419	7
698.447	4
698.476	-14
698.505	1
698.533	-4
698.562	-4
698.591	-16
698.619	-13
698.648	4
698.676	-7
698.705	-7
698.733	-8
698.762	2
698.791	2
698.819	-12
698.848	6
698.876	-3
698.905	-6
698.933	2
698.962	3
698.991	1
699.019	4
699.048	-9
699.076	2
699.105	-16
699.133	0
699.162	9
699.19	29
699.219	10
699.248	-16
699.276	-3
699.305	-8
699.333	-4
699.362	-4
699.39	14
699.419	8
699.447	4
699.476	20
699.504	3
699.533	0
699.561	-8
699.59	4
699.618	5
699.647	4
699.675	-6
699.704	1
699.732	5
699.761	17
699.789	6
699.818	16
699.846	6
699.874	-7
699.903	7
699.931	-11
699.96	1
699.988	4
700.017	-2
700.045	-2
700.074	2
700.102	17
700.13	-3
700.159	3
700.187	-3
700.216	-2
700.244	8
700.273	13
700.301	1
700.329	5
700.358	7
700.386	-5
700.415	-1
700.443	-7
700.472	0
700.5	2
700.528	-2
700.557	11
700.585	0
700.614	0
700.642	5
700.67	10
700.699	8
700.727	9
700.755	10
700.784	1
700.812	8
700.841	-11
700.869	-4
700.897	-11
700.926	-9
700.954	-3
700.982	4
701.011	-5
701.039	-5
701.067	-3
701.096	2
701.124	-8
701.152	13
701.181	6
701.209	-14
701.237	-6
701.266	-11
701.294	-10
701.322	8
701.351	1
701.379	-6
701.407	-31
701.435	13
701.464	14
701.492	22
701.52	-7
701.549	6
701.577	-22
701.605	-3
701.634	-11
701.662	7
701.69	-10
701.718	5
701.747	-3
701.775	-2
701.803	-8
701.831	13
701.86	-2
701.888	-5
701.916	16
701.944	15
701.973	-16
702.001	-11
702.029	-11
702.057	-15
702.086	-20
702.114	-10
702.142	-1
702.17	-6
702.199	-3
702.227	2
702.255	-2
702.283	-5
702.311	6
702.34	-3
702.368	-31
702.396	-3
702.424	5
702.452	-9
702.481	-9
702.509	-2
702.537	6
702.565	12
702.593	-4
702.621	-6
702.65	23
702.678	1
702.706	-7
702.734	-3
702.762	6
702.79	4
702.819	10
702.847	3
702.875	9
702.903	9
702.931	-2
702.959	-4
702.988	-2
703.016	-9
703.044	2
703.072	-3
703.1	-12
703.128	-3
703.156	8
703.184	1
703.212	18
703.241	15
703.269	2
703.297	-6
703.325	-12
703.353	-7
703.381	-2
703.409	-3
703.437	-6
703.465	-5
703.493	5
703.522	-3
703.55	10
703.578	3
703.606	4
703.634	1
703.662	0
703.69	-12
703.718	-4
703.746	9
703.774	-4
703.802	25
703.83	-6
703.858	-6
703.886	-9
703.914	-11
703.942	9
703.97	2
703.998	1
704.027	18
704.055	4
704.083	-11
704.111	9
704.139	-13
704.167	3
704.195	11
704.223	-5
704.251	-3
704.279	11
704.307	1
704.335	-4
704.363	3
704.391	-4
704.419	-16
704.447	-28
704.475	-10
704.503	-15
704.531	7
704.558	-8
704.586	12
704.614	-4
704.642	-7
704.67	-26
704.698	-4
704.726	17
704.754	-1
704.782	2
704.81	0
704.838	20
704.866	3
704.894	-14
704.922	-10
704.95	12
704.978	11
705.006	-2
705.034	15
705.061	5
705.089	-9
705.117	2
705.145	-4
705.173	-3
705.201	4
705.229	0
705.257	1
705.285	-6
705.313	1
705.34	-3
705.368	-3
705.396	-7
705.424	-1
705.452	-2
705.48	-1
705.508	-8
705.536	-4
705.563	-7
705.591	-1
705.619	-1
705.647	-6
705.675	6
705.703	4
705.731	2
705.758	4
705.786	-2
705.814	8
705.842	-11
705.87	14
705.898	9
705.925	-4
705.953	0
705.981	-10
706.009	-6
706.037	5
706.065	-7
706.092	2
706.12	3
706.148	-12
706.176	-1
706.204	2
706.231	-4
706.259	-8
706.287	-3
706.315	-8
706.342	-12
706.37	3
706.398	6
706.426	-3
706.454	0
706.481	3
706.509	-6
706.537	-8
706.565	-8
706.592	8
706.62	-1
706.648	5
706.676	-20
706.703	-2
706.731	-7
706.759	3
706.787	7
706.814	-14
706.842	-14
706.87	-5
706.897	-1
706.925	-2
706.953	15
706.981	14
707.008	1
707.036	2
707.064	-7
707.091	-13
707.119	1
707.147	-7
707.174	-8
707.202	16
707.23	-9
707.258	3
707.285	-2
707.313	0
707.341	-13
707.368	-16
707.396	-10
707.424	6
707.451	-4
707.479	-1
707.507	-10
707.534	-18
707.562	-16
707.59	-24
707.617	-3
707.645	-7
707.672	-6
707.7	-10
707.728	4
707.755	-5
707.783	-15
707.811	-12
707.838	-8
707.866	12
707.893	10
707.921	-6
707.949	-10
707.976	0
708.004	9
708.031	-9
708.059	-6
708.087	-17
708.114	-8
708.142	-11
708.169	-20
708.197	-11
708.225	-20
708.252	-2
708.28	-10
708.307	-9
708.335	0
708.362	-15
708.39	-10
708.418	6
708.445	-19
708.473	-18
708.5	-9
708.528	-4
708.555	-10
708.583	-1
708.61	-6
708.638	5
708.665	-17
708.693	-10
708.72	-9
708.748	-9
708.776	-4
708.803	10
708.831	-2
708.858	-1
708.886	-7
708.913	-13
708.941	-3
708.968	-1
708.996	-10
709.023	17
709.051	-1
709.078	-11
709.105	-2
709.133	-10
709.16	-8
709.188	11
709.215	15
709.243	-2
709.27	-16
709.298	-19
709.325	-21
709.353	13
709.38	5
709.408	15
709.435	-6
709.462	-4
709.49	-1
709.517	-8
709.545	-13
709.572	-9
709.6	-1
709.627	-3
709.655	-10
709.682	-12
709.709	-7
709.737	-17
709.764	-16
709.792	9
709.819	-1
709.846	-14
709.874	1
709.901	11
709.929	23
709.956	15
709.983	-16
710.011	-4
710.038	-19
710.066	15
710.093	16
710.12	6
710.148	-4
710.175	-16
710.202	-6
710.23	1
710.257	-7
710.284	15
710.312	2
710.339	7
710.366	-14
710.394	-8
710.421	-13
710.448	-9
710.476	-25
710.503	5
710.53	14
710.558	15
710.585	4
710.612	-11
710.64	-18
710.667	-7
710.694	4
710.722	1
710.749	1
710.776	-2
710.804	28
710.831	10
710.858	-3
710.885	-1
710.913	-6
710.94	10
710.967	0
710.995	-7
711.022	-11
711.049	-2
711.076	-9
711.104	2
711.131	-9
711.158	6
711.185	13
711.213	-8
711.24	-10
711.267	0
711.294	2
711.322	10
711.349	-3
711.376	-3
711.403	-9
711.431	-23
711.458	-4
711.485	-2
711.512	9
711.54	-2
711.567	-4
711.594	-10
711.621	-9
711.648	-2
711.676	3
711.703	0
711.73	-18
711.757	-10
711.784	-8
711.812	-4
711.839	-7
711.866	-26
711.893	-6
711.92	10
711.947	13
711.975	-7
712.002	-12
712.029	4
712.056	-2
712.083	1
712.11	-20
712.138	-17
712.165	-8
712.192	6
712.219	1
712.246	-10
712.273	-6
712.3	1
712.328	-4
712.355	-9
712.382	-9
712.409	5
712.436	-9
712.463	2
712.49	3
712.517	6
712.544	-3
712.572	6
712.599	-11
712.626	-7
712.653	-10
712.68	-33
712.707	-4
712.734	-3
712.761	-9
712.788	2
712.815	-3
712.842	15
712.87	-5
712.897	-8
712.924	-20
712.951	-9
712.978	8
713.005	5
713.032	5
713.059	-3
713.086	-16
713.113	-16
713.14	-4
713.167	-19
713.194	-6
713.221	-3
713.248	8
713.275	-6
713.302	-7
713.329	3
713.356	5
713.383	10
713.41	8
713.437	0
713.464	16
713.491	9
713.518	-5
713.545	-2
713.572	10
713.599	17
713.626	-3
713.653	-14
713.68	-19
713.707	-6
713.734	-9
713.761	2
713.788	-7
713.815	21
713.842	-6
713.869	2
713.896	-2
713.923	-3
713.95	-9
713.977	-8
714.004	1
714.031	-3
714.058	-7
714.085	-8
714.112	20
714.139	2
714.165	6
714.192	7
714.219	1
714.246	7
714.273	-8
714.3	5
714.327	-4
714.354	4
714.381	-1
714.408	-1
714.435	6
714.461	3
714.488	-3
714.515	-8
714.542	-14
714.569	-17
714.596	-24
714.623	1
714.65	-11
714.677	-1
714.703	-3
714.73	-3
714.757	6
714.784	-3
714.811	-15
714.838	-1
714.865	-14
714.891	22
714.918	-1
714.945	-19
714.972	-11
714.999	-1
715.026	-11
715.052	-7
715.079	-14
715.106	-17
715.133	-7
715.16	-10
715.187	11
715.213	3
715.24	-8
715.267	-12
715.294	9
715.321	-2
715.347	-15
715.374	-15
715.401	-2
715.428	-17
715.455	-7
715.481	0
715.508	9
715.535	-23
715.562	6
715.588	-9
715.615	-16
715.642	2
715.669	21
715.695	-18
715.722	-7
715.749	1
715.776	3
715.802	3
715.829	11
715.856	-16
715.883	4
715.909	-11
715.936	2
715.963	8
715.99	-2
716.016	10
716.043	-9
716.07	-17
716.096	5
716.123	5
716.15	4
716.177	-6
716.203	-8
716.23	9
716.257	-3
716.283	3
716.31	-20
716.337	-11
716.363	2
716.39	-7
716.417	-4
716.443	-6
716.47	-3
716.497	10
716.523	11
716.55	13
716.577	14
716.603	-12
716.63	11
716.657	14
716.683	-13
716.71	-12
716.737	-13
716.763	-10
716.79	-9
716.817	24
716.843	0
716.87	5
716.897	-1
716.923	11
716.95	4
716.976	-13
717.003	-6
717.03	1
717.056	1
717.083	8
717.109	4
717.136	-2
717.163	-8
717.189	-6
717.216	-2
717.242	12
717.269	-10
717.296	6
717.322	5
717.349	7
717.375	-5
717.402	-10
717.428	-9
717.455	1
717.481	1
717.508	10
717.535	3
717.561	-3
717.588	4
717.614	-1
717.641	0
717.667	2
717.694	12
717.72	5
717.747	9
717.773	-11
717.8	-7
717.826	0
717.853	3
717.88	20
717.906	-3
717.933	-12
717.959	12
717.986	-3
718.012	-15
718.039	4
718.065	5
718.092	9
718.118	-14
718.144	-5
718.171	29
718.197	11
718.224	-1
718.25	7
718.277	6
718.303	7
718.33	-3
718.356	7
718.383	-10
718.409	-2
718.436	-9
718.462	10
718.489	-4
718.515	22
718.541	14
718.568	11
718.594	9
718.621	-1
718.647	-6
718.674	11
718.7	-6
718.726	-5
718.753	-1
718.779	18
718.806	4
718.832	-1
718.858	-5
718.885	-4
718.911	-4
718.938	1
718.964	-17
718.99	2
719.017	1
719.043	13
719.07	-3
719.096	-7
719.122	9
719.149	-8
719.175	8
719.201	14
719.228	0
719.254	-3
719.281	-6
719.307	-3
719.333	-5
719.36	6
719.386	-14
719.412	-13
719.439	-20
719.465	-12
719.491	-7
719.518	14
719.544	3
719.57	0
719.597	-1
719.623	-14
719.649	9
719.675	-4
719.702	-15
719.728	-7
719.754	-7
719.781	-1
719.807	-7
719.833	-8
719.86	9
719.886	-8
719.912	-17
719.938	-9
719.965	-6
719.991	-4
720.017	-10
720.044	-1
720.07	-10
720.096	5
720.122	-2
720.149	10
720.175	17
720.201	3
720.227	-4
720.254	0
720.28	13
720.306	-3
720.332	-4
720.359	11
720.385	13
720.411	-2
720.437	4
720.463	8
720.49	13
720.516	-9
720.542	-17
720.568	-2
720.595	4
720.621	9
720.647	7
720.673	7
720.699	1
720.725	2
720.752	9
720.778	16
720.804	-4
720.83	15
720.856	2
720.883	-18
720.909	-9
720.935	-3
720.961	21
720.987	-12
721.013	-2
721.04	-1
721.066	-1
721.092	-7
721.118	1
721.144	10
721.17	10
721.196	-2
721.223	-24
721.249	-18
721.275	17
721.301	6
721.327	5
721.353	15
721.379	-9
721.405	-5
721.432	8
721.458	-7
721.484	4
721.51	-4
721.536	15
721.562	14
721.588	-1
721.614	-2
721.64	0
721.666	-9
721.693	5
721.719	-3
721.745	-10
721.771	-12
721.797	-2
721.823	-2
721.849	-2
721.875	6
721.901	12
721.927	12
721.953	-2
721.979	24
722.005	-1
722.031	-7
722.057	3
722.083	-3
722.109	8
722.135	8
722.161	10
722.187	-3
722.214	-1
722.24	9
722.266	-10
722.292	7
722.318	10
722.344	-7
722.37	2
722.396	3
722.422	-16
722.448	-16
722.474	-24
722.5	1
722.526	2
722.552	-9
722.578	-1
722.603	8
722.629	-6
722.655	1
722.681	0
722.707	-7
722.733	-2
722.759	-14
722.785	-16
722.811	-2
722.837	-8
722.863	11
722.889	15
722.915	-6
722.941	-7
722.967	-4
722.993	-8
723.019	9
723.045	8
723.071	11
723.097	3
723.122	-12
723.148	-19
723.174	2
723.2	4
723.226	-6
723.252	-14
723.278	-8
723.304	-15
723.33	1
723.356	-18
723.381	-12
723.407	-2
723.433	12
723.459	-10
723.485	-2
723.511	-11
723.537	-8
723.563	11
723.588	9
723.614	7
723.64	2
723.666	3
723.692	10
723.718	-1
723.744	8
723.769	3
723.795	-1
723.821	0
723.847	1
723.873	-10
723.899	1
723.924	-13
723.95	-10
723.976	-3
724.002	6
724.028	2
724.053	3
724.079	-10
724.105	-7
724.131	-6
724.157	-5
724.182	-14
724.208	-11
724.234	-16
724.26	0
724.286	11
724.311	-7
724.337	-8
724.363	2
724.389	2
724.415	-4
724.44	-1
724.466	-3
724.492	-9
724.518	7
724.543	-4
724.569	-12
724.595	6
724.621	2
724.646	-6
724.672	-32
724.698	-13
724.723	-13
724.749	-8
724.775	-7
724.801	2
724.826	-5
724.852	-1
724.878	-17
724.904	-18
724.929	-5
724.955	-4
724.981	-6
725.006	3
725.032	-4
725.058	5
725.083	9
725.109	-7
725.135	-6
725.161	8
725.186	1
725.212	-7
725.238	2
725.263	-13
725.289	-16
725.315	-12
725.34	-13
725.366	-4
725.392	-11
725.417	-4
725.443	-13
725.468	8
725.494	17
725.52	12
725.545	5
725.571	-2
725.597	-6
725.622	-5
725.648	4
725.674	3
725.699	8
725.725	-2
725.75	14
725.776	5
725.802	3
725.827	-7
725.853	-1
725.878	9
725.904	14
725.93	8
725.955	-22
725.981	-19
726.006	-11
726.032	8
726.057	1
726.083	6
726.109	-4
726.134	3
726.16	-7
726.185	-5
726.211	-6
726.236	7
726.262	0
726.288	10
726.313	6
726.339	10
726.364	-1
726.39	7
726.415	10
726.441	-6
726.466	-5
726.492	-9
726.517	5
726.543	11
726.568	-12
726.594	-11
726.619	0
726.645	0
726.67	-1
726.696	9
726.721	-3
726.747	0
726.772	-6
726.798	0
726.823	12
726.849	-8
726.874	11
726.9	16
726.925	-2
726.951	-3
726.976	5
727.002	-6
727.027	14
727.053	8
727.078	4
727.104	1
727.129	-15
727.155	0
727.18	-10
727.205	-1
727.231	-1
727.256	6
727.282	8
727.307	0
727.333	-11
727.358	0
727.383	-16
727.409	-11
727.434	15
727.46	6
727.485	-10
727.511	8
727.536	-22
727.561	-9
727.587	-3
727.612	-16
727.637	-10
727.663	-11
727.688	5
727.714	-9
727.739	-7
727.764	8
727.79	5
727.815	0
727.841	3
727.866	-6
727.891	7
727.917	-6
727.942	-8
727.967	-9
727.993	-24
728.018	-5
728.043	-7
728.069	10
728.094	6
728.119	-15
728.145	7
728.17	6
728.195	2
728.221	21
728.246	0
728.271	-8
728.297	-9
728.322	2
728.347	6
728.373	2
728.398	3
728.423	2
728.448	2
728.474	3
728.499	-1
728.524	-12
728.55	-11
728.575	-10
728.6	-6
728.625	-7
728.651	6
728.676	4
728.701	-13
728.727	9
728.752	-2
728.777	-7
728.802	21
728.828	-6
728.853	-8
728.878	-1
728.903	9
728.929	1
728.954	-12
728.979	4
729.004	-20
729.03	-14
729.055	8
729.08	-1
729.105	-7
729.13	7
729.156	-2
729.181	2
729.206	-15
729.231	-15
729.256	7
729.282	1
729.307	-18
729.332	-14
729.357	4
729.382	4
729.408	13
729.433	0
729.458	-4
729.483	4
729.508	10
729.533	-7
729.559	5
729.584	6
729.609	0
729.634	13
729.659	-7
729.684	-13
729.71	4
729.735	-2
729.76	2
729.785	3
729.81	-1
729.835	-11
729.86	-15
729.886	9
729.911	3
729.936	6
729.961	-3
729.986	-15
730.011	6
730.036	5
730.061	-9
730.086	-10
730.112	-2
730.137	23
730.162	5
730.187	-11
730.212	-8
730.237	-2
730.262	-13
730.287	-8
730.312	15
730.337	-8
730.362	10
730.387	-1
730.413	-6
730.438	-7
730.463	-6
730.488	1
730.513	8
730.538	-25
730.563	-1
730.588	-6
730.613	5
730.638	-11
730.663	2
730.688	2
730.713	-4
730.738	-1
730.763	6
730.788	-27
730.813	-10
730.838	-11
730.863	2
730.888	-3
730.913	-3
730.938	-30
730.963	-17
730.988	-4
731.013	21
731.038	-3
731.063	-15
731.088	5
731.113	-13
731.138	1
731.163	2
731.188	-9
731.213	-6
731.238	-8
731.263	-11
731.288	4
731.313	-7
731.338	2
731.363	-4
731.388	6
731.413	-7
731.438	9
731.463	14
731.487	1
731.512	-1
731.537	-13
731.562	-3
731.587	7
731.612	-19
731.637	-10
731.662	0
731.687	-8
731.712	-18
731.737	-1
731.762	-2
731.786	8
731.811	5
731.836	-5
731.861	0
731.886	-7
731.911	5
731.936	9
731.961	-23
731.986	-19
732.01	6
732.035	16
732.06	11
732.085	-2
732.11	-1
732.135	-9
732.16	-6
732.184	-3
732.209	-1
732.234	13
732.259	-10
732.284	5
732.309	-12
732.334	-24
732.358	-25
732.383	-9
732.408	-2
732.433	-12
732.458	-11
732.482	-7
732.507	-12
732.532	-5
732.557	5
732.582	-1
732.607	-11
732.631	-8
732.656	-11
732.681	1
732.706	1
732.73	-9
732.755	-1
732.78	-6
732.805	-9
732.83	-10
732.854	-13
732.879	2
732.904	-5
732.929	-13
732.953	-7
732.978	2
733.003	-5
733.028	-6
733.052	12
733.077	-4
733.102	15
733.127	8
733.151	2
733.176	-4
733.201	-10
733.226	6
733.25	10
733.275	7
733.3	-1
733.324	28
733.349	0
733.374	-6
733.399	-1
733.423	2
733.448	-7
733.473	-4
733.497	-26
733.522	-20
733.547	4
733.571	1
733.596	7
733.621	7
733.646	-1
733.67	-1
733.695	1
733.72	9
733.744	-3
733.769	-7
733.794	22
733.818	-2
733.843	-8
733.867	-21
733.892	8
733.917	0
733.941	6
733.966	-11
733.991	-13
734.015	0
734.04	-7
734.065	-1
734.089	9
734.114	-10
734.138	-10
734.163	-11
734.188	3
734.212	0
734.237	10
734.261	0
734.286	-10
734.311	5
734.335	-3
734.36	-19
734.384	-2
734.409	0
734.434	-8
734.458	-6
734.483	1
734.507	-2
734.532	-12
734.556	-7
734.581	-6
734.606	-6
734.63	-12
734.655	4
734.679	-8
734.704	-4
734.728	-3
734.753	-8
734.777	-5
734.802	-4
734.826	3
734.851	-9
734.876	16
734.9	5
734.925	11
734.949	1
734.974	-8
734.998	17
735.023	5
735.047	-17
735.072	23
735.096	-2
735.121	-17
735.145	-6
735.17	8
735.194	-6
735.219	-2
735.243	4
735.268	8
735.292	16
735.317	9
735.341	-9
735.365	-16
735.39	-1
735.414	-4
735.439	-2
735.463	-2
735.488	5
735.512	3
735.537	4
735.561	-7
735.586	-7
735.61	1
735.634	-12
735.659	-6
735.683	6
735.708	-10
735.732	-7
735.757	-8
735.781	6
735.805	-3
735.83	-9
735.854	6
735.879	4
735.903	16
735.927	2
735.952	-8
735.976	-7
736.001	-10
736.025	-4
736.049	2
736.074	-3
736.098	5
736.123	0
736.147	4
736.171	-4
736.196	2
736.22	-19
736.244	7
736.269	9
736.293	2
736.317	-8
736.342	-3
736.366	5
736.39	-7
736.415	-4
736.439	5
736.463	11
736.488	-8
736.512	-4
736.536	14
736.561	22
736.585	1
736.609	4
736.634	4
736.658	5
736.682	-15
736.707	-9
736.731	-7
736.755	4
736.78	7
736.804	13
736.828	10
736.852	-8
736.877	-11
736.901	13
736.925	-4
736.949	10
736.974	-4
736.998	-19
737.022	-2
737.047	1
737.071	6
737.095	21
737.119	29
737.144	18
737.168	-2
737.192	-4
737.216	14
737.241	-8
737.265	0
737.289	-7
737.313	4
737.337	-5
737.362	12
737.386	-4
737.41	-23
737.434	-6
737.459	-3
737.483	13
737.507	1
737.531	3
737.555	-8
737.58	-6
737.604	-7
737.628	-10
737.652	-10
737.676	0
737.701	7
737.725	9
737.749	-8
737.773	4
737.797	-18
737.821	14
737.846	-5
737.87	2
737.894	2
737.918	-7
737.942	-13
737.966	7
737.99	4
738.015	5
738.039	1
738.063	-3
738.087	6
738.111	-4
738.135	15
738.159	9
738.184	-3
738.208	-1
738.232	10
738.256	7
738.28	13
738.304	18
738.328	-11
738.352	-10
738.376	-3
738.4	-9
738.425	-8
738.449	-4
738.473	4
738.497	3
738.521	10
738.545	7
738.569	7
738.593	3
738.617	-9
738.641	-10
738.665	-8
738.689	-8
738.713	-13
738.737	2
738.762	15
738.786	14
738.81	-6
738.834	7
738.858	5
738.882	3
738.906	-20
738.93	3
738.954	4
738.978	8
739.002	-7
739.026	-2
739.05	5
739.074	-2
739.098	2
739.122	5
739.146	1
739.17	0
739.194	12
739.218	-9
739.242	7
739.266	-4
739.29	12
739.314	-2
739.338	-6
739.362	-4
739.386	8
739.41	-15
739.434	-6
739.458	14
739.482	-2
739.506	5
739.53	-12
739.554	-2
739.577	-3
739.601	27
739.625	4
739.649	5
739.673	-6
739.697	6
739.721	-11
739.745	0
739.769	5
739.793	22
739.817	12
739.841	-7
739.865	0
739.889	-22
739.912	0
739.936	-14
739.96	-11
739.984	13
740.008	4
740.032	-15
740.056	0
740.08	-7
740.104	-6
740.127	26
740.151	5
740.175	10
740.199	-18
740.223	47
740.247	4
740.271	-2
740.295	-10
740.318	-7
740.342	-6
740.366	-6
740.39	14
740.414	5
740.438	-4
740.461	13
740.485	5
740.509	4
740.533	2
740.557	8
740.581	-12
740.604	-25
740.628	-6
740.652	4
740.676	-12
740.7	8
740.723	-4
740.747	-15
740.771	-16
740.795	-10
740.819	-15
740.842	-3
740.866	13
740.89	8
740.914	-2
740.938	-23
740.961	-3
740.985	-6
741.009	-13
741.033	-8
741.056	-10
741.08	-11
741.104	-16
741.128	-13
741.151	7
741.175	13
741.199	10
741.223	5
741.246	-9
741.27	12
741.294	1
741.318	-4
741.341	2
741.365	-8
741.389	-10
741.413	6
741.436	28
741.46	7
741.484	23
741.507	-3
741.531	15
741.555	-6
741.579	-12
741.602	9
741.626	7
741.65	-3
741.673	1
741.697	9
741.721	-3
741.744	-11
741.768	-7
741.792	-6
741.815	-4
741.839	12
741.863	27
741.886	7
741.91	7
741.934	-6
741.957	-18
741.981	3
742.005	5
742.028	-9
742.052	-19
742.075	-3
742.099	0
742.123	-7
742.146	-6
742.17	7
742.194	-19
742.217	-11
742.241	1
742.264	-4
742.288	21
742.312	3
742.335	-9
742.359	-13
742.382	19
742.406	27
742.43	-16
742.453	-2
742.477	-12
742.5	7
742.524	1
742.548	-13
742.571	-11
742.595	-6
742.618	-12
742.642	-14
742.665	-1
742.689	-4
742.712	2
742.736	-6
742.76	-8
742.783	1
742.807	19
742.83	7
742.854	-7
742.877	-5
742.901	-7
742.924	-16
742.948	-3
742.971	-9
742.995	-3
743.018	-7
743.042	-10
743.065	7
743.089	-1
743.112	2
743.136	-9
743.159	-8
743.183	-6
743.206	0
743.23	-14
743.253	-2
743.277	9
743.3	0
743.324	-2
743.347	-6
743.371	10
743.394	8
743.418	20
743.441	10
743.465	-7
743.488	-1
743.512	-24
743.535	-8
743.558	0
743.582	-1
743.605	2
743.629	4
743.652	4
743.676	-19
743.699	7
743.723	16
743.746	8
743.769	-8
743.793	1
743.816	2
743.84	17
743.863	1
743.886	13
743.91	17
743.933	4
743.957	11
743.98	11
744.003	15
744.027	-4
744.05	2
744.074	6
744.097	-9
744.12	-3
744.144	-11
744.167	12
744.19	-1
744.214	3
744.237	-6
744.26	12
744.284	-2
744.307	-7
744.331	8
744.354	-1
744.377	-8
744.401	0
744.424	-17
744.447	-8
744.471	-16
