Data from HighRes_H2_15_09_11_07_2024_HR4C61891__100__15-11-06-401.txt Node

Date: Thu Nov 07 15:11:06 EST 2024
User: crc00042
Spectrometer: HR4C6189
Trigger mode: 4
Integration Time (sec): 1.000000E-1
Scans to average: 1
Electric dark correction enabled: true
Nonlinearity correction enabled: false
Boxcar width: 0
XAxis mode: Wavelengths
Number of Pixels in Spectrum: 3648
>>>>>Begin Spectral Data<<<<<
639.567	-50
639.602	-50
639.636	-50
639.67	-44
639.704	-25
639.738	-11
639.773	6
639.807	-12
639.841	3
639.875	16
639.909	7
639.943	-9
639.978	-13
640.012	3
640.046	24
640.08	-2
640.114	-4
640.148	-8
640.182	-25
640.217	9
640.251	5
640.285	11
640.319	-10
640.353	-2
640.387	-1
640.421	-21
640.455	-5
640.49	1
640.524	-22
640.558	-9
640.592	3
640.626	6
640.66	-1
640.694	-13
640.728	-14
640.762	3
640.796	21
640.83	32
640.865	2
640.899	8
640.933	-1
640.967	-14
641.001	7
641.035	-2
641.069	-5
641.103	5
641.137	7
641.171	-16
641.205	6
641.239	11
641.273	15
641.307	2
641.341	3
641.375	-2
641.409	-2
641.443	3
641.477	7
641.511	-3
641.545	10
641.579	2
641.614	7
641.648	7
641.682	-9
641.716	-9
641.75	9
641.784	2
641.818	0
641.852	7
641.886	-14
641.919	18
641.953	-9
641.987	-13
642.021	-3
642.055	-6
642.089	8
642.123	-7
642.157	-5
642.191	-5
642.225	18
642.259	7
642.293	4
642.327	-8
642.361	-7
642.395	2
642.429	4
642.463	14
642.497	4
642.531	-3
642.565	-12
642.599	11
642.633	-4
642.666	8
642.7	5
642.734	4
642.768	-16
642.802	0
642.836	6
642.87	4
642.904	-7
642.938	2
642.972	4
643.005	2
643.039	7
643.073	-1
643.107	14
643.141	-1
643.175	-15
643.209	-15
643.243	-6
643.276	-2
643.31	-31
643.344	-8
643.378	-3
643.412	1
643.446	-6
643.48	-10
643.513	4
643.547	1
643.581	-4
643.615	0
643.649	-9
643.683	6
643.716	-10
643.75	-2
643.784	-19
643.818	-8
643.852	-10
643.886	-2
643.919	6
643.953	9
643.987	5
644.021	4
644.055	-7
644.088	-8
644.122	3
644.156	-4
644.19	3
644.224	-3
644.257	0
644.291	7
644.325	-1
644.359	-18
644.392	9
644.426	8
644.46	12
644.494	0
644.527	-10
644.561	4
644.595	6
644.629	-12
644.662	1
644.696	6
644.73	-8
644.764	6
644.797	-1
644.831	1
644.865	13
644.899	3
644.932	17
644.966	-2
645	2
645.033	27
645.067	-6
645.101	-2
645.135	-5
645.168	-19
645.202	-7
645.236	4
645.269	14
645.303	1
645.337	-1
645.37	-11
645.404	12
645.438	-6
645.471	-12
645.505	-9
645.539	-5
645.572	-7
645.606	8
645.64	-15
645.673	-6
645.707	16
645.741	-21
645.774	-4
645.808	11
645.842	-6
645.875	5
645.909	3
645.943	0
645.976	9
646.01	11
646.043	17
646.077	-5
646.111	5
646.144	-1
646.178	-2
646.212	-15
646.245	-3
646.279	5
646.312	23
646.346	19
646.38	-1
646.413	0
646.447	-8
646.48	-10
646.514	14
646.547	0
646.581	2
646.615	8
646.648	6
646.682	10
646.715	-1
646.749	13
646.782	15
646.816	-3
646.85	1
646.883	0
646.917	2
646.95	6
646.984	3
647.017	-2
647.051	20
647.084	2
647.118	2
647.151	10
647.185	6
647.218	-9
647.252	1
647.285	-6
647.319	-23
647.353	-3
647.386	15
647.42	-4
647.453	-4
647.487	16
647.52	15
647.553	10
647.587	-9
647.62	7
647.654	7
647.687	8
647.721	6
647.754	1
647.788	1
647.821	-27
647.855	7
647.888	3
647.922	-9
647.955	0
647.989	6
648.022	15
648.055	11
648.089	5
648.122	29
648.156	7
648.189	-8
648.223	6
648.256	5
648.29	-4
648.323	-5
648.356	20
648.39	8
648.423	-3
648.457	7
648.49	1
648.523	2
648.557	8
648.59	-8
648.624	-7
648.657	-2
648.69	20
648.724	-4
648.757	5
648.791	-2
648.824	-4
648.857	12
648.891	12
648.924	10
648.957	5
648.991	-26
649.024	11
649.057	7
649.091	-10
649.124	9
649.158	-1
649.191	31
649.224	0
649.258	2
649.291	13
649.324	7
649.358	-7
649.391	19
649.424	4
649.458	-7
649.491	-2
649.524	-19
649.557	-11
649.591	-12
649.624	10
649.657	-10
649.691	7
649.724	10
649.757	11
649.791	0
649.824	13
649.857	10
649.89	18
649.924	-24
649.957	-2
649.99	-9
650.023	-13
650.057	-7
650.09	-3
650.123	-2
650.157	8
650.19	28
650.223	2
650.256	-21
650.29	-8
650.323	-2
650.356	12
650.389	5
650.423	-12
650.456	10
650.489	6
650.522	4
650.555	-2
650.589	-3
650.622	-13
650.655	6
650.688	6
650.721	6
650.755	-11
650.788	3
650.821	-4
650.854	0
650.887	-1
650.921	-5
650.954	-14
650.987	-1
651.02	-11
651.053	-18
651.087	-16
651.12	3
651.153	2
651.186	-9
651.219	-7
651.252	3
651.286	3
651.319	-6
651.352	-2
651.385	0
651.418	-6
651.451	5
651.484	-3
651.518	-6
651.551	21
651.584	1
651.617	15
651.65	-8
651.683	16
651.716	3
651.749	-29
651.783	-3
651.816	10
651.849	8
651.882	2
651.915	-6
651.948	10
651.981	-2
652.014	-15
652.047	-19
652.08	-22
652.114	-13
652.147	-2
652.18	7
652.213	37
652.246	14
652.279	-4
652.312	13
652.345	-7
652.378	-3
652.411	0
652.444	2
652.477	-4
652.51	7
652.543	-11
652.576	-2
652.609	-10
652.642	16
652.675	-1
652.709	-14
652.742	3
652.775	4
652.808	10
652.841	8
652.874	4
652.907	-4
652.94	-7
652.973	-6
653.006	-14
653.039	-3
653.072	6
653.105	2
653.138	-23
653.171	14
653.204	4
653.237	8
653.27	-14
653.303	10
653.336	6
653.368	-14
653.401	2
653.434	-10
653.467	-6
653.5	-8
653.533	-24
653.566	-5
653.599	-6
653.632	0
653.665	-3
653.698	-22
653.731	5
653.764	0
653.797	-11
653.83	-4
653.863	-13
653.896	-5
653.929	-2
653.961	11
653.994	4
654.027	9
654.06	17
654.093	14
654.126	-2
654.159	-8
654.192	-5
654.225	-1
654.258	-8
654.29	9
654.323	6
654.356	-19
654.389	-8
654.422	-8
654.455	5
654.488	-5
654.521	-30
654.553	-19
654.586	10
654.619	3
654.652	-16
654.685	2
654.718	4
654.751	7
654.783	-14
654.816	9
654.849	-11
654.882	-17
654.915	-22
654.948	-5
654.98	-10
655.013	10
655.046	1
655.079	-8
655.112	0
655.144	-23
655.177	3
655.21	9
655.243	18
655.276	-3
655.308	6
655.341	3
655.374	19
655.407	2
655.44	10
655.472	10
655.505	22
655.538	4
655.571	0
655.603	2
655.636	-6
655.669	3
655.702	25
655.734	1
655.767	20
655.8	18
655.833	24
655.865	31
655.898	25
655.931	2
655.964	34
655.996	47
656.029	54
656.062	48
656.095	58
656.127	62
656.16	111
656.193	112
656.225	154
656.258	250
656.291	497
656.324	1159
656.356	3378
656.389	7501
656.422	5984
656.454	2083
656.487	682
656.52	258
656.552	118
656.585	77
656.618	50
656.65	45
656.683	23
656.716	21
656.748	4
656.781	1
656.814	-8
656.846	10
656.879	6
656.912	2
656.944	-27
656.977	-12
657.01	-6
657.042	13
657.075	4
657.108	-23
657.14	4
657.173	16
657.205	31
657.238	5
657.271	9
657.303	-8
657.336	-1
657.369	10
657.401	0
657.434	3
657.466	12
657.499	1
657.532	-3
657.564	1
657.597	-7
657.629	6
657.662	7
657.694	-7
657.727	-16
657.76	20
657.792	-12
657.825	3
657.857	4
657.89	0
657.922	0
657.955	12
657.987	1
658.02	13
658.053	10
658.085	4
658.118	7
658.15	20
658.183	12
658.215	-3
658.248	7
658.28	0
658.313	28
658.345	8
658.378	-10
658.41	-2
658.443	2
658.475	-2
658.508	-3
658.54	2
658.573	11
658.605	4
658.638	-9
658.67	2
658.703	-4
658.735	3
658.768	0
658.8	0
658.833	26
658.865	8
658.898	0
658.93	-2
658.963	-3
658.995	-26
659.028	-6
659.06	-8
659.092	5
659.125	2
659.157	11
659.19	1
659.222	-18
659.255	-6
659.287	-1
659.32	-13
659.352	-5
659.384	3
659.417	-2
659.449	-10
659.482	3
659.514	-21
659.546	-10
659.579	-13
659.611	11
659.644	-1
659.676	-15
659.708	-6
659.741	-12
659.773	4
659.806	5
659.838	-3
659.87	1
659.903	-9
659.935	1
659.967	15
660	4
660.032	-19
660.065	9
660.097	2
660.129	-8
660.162	-16
660.194	7
660.226	-2
660.259	9
660.291	-8
660.323	-9
660.356	-5
660.388	-7
660.42	-6
660.453	8
660.485	11
660.517	3
660.55	8
660.582	-2
660.614	5
660.647	-3
660.679	-8
660.711	6
660.743	-13
660.776	-28
660.808	-9
660.84	-13
660.873	-17
660.905	-22
660.937	1
660.969	-2
661.002	2
661.034	11
661.066	-5
661.099	10
661.131	12
661.163	-8
661.195	-12
661.228	6
661.26	1
661.292	-3
661.324	7
661.357	14
661.389	12
661.421	0
661.453	0
661.485	7
661.518	7
661.55	-28
661.582	0
661.614	-4
661.647	0
661.679	-6
661.711	-2
661.743	-13
661.775	18
661.808	0
661.84	-4
661.872	15
661.904	2
661.936	11
661.969	-11
662.001	9
662.033	-5
662.065	0
662.097	8
662.129	8
662.162	-19
662.194	-14
662.226	-14
662.258	4
662.29	3
662.322	-23
662.355	-18
662.387	12
662.419	1
662.451	13
662.483	-3
662.515	13
662.547	3
662.58	0
662.612	-7
662.644	-11
662.676	-7
662.708	3
662.74	10
662.772	6
662.804	10
662.836	7
662.869	1
662.901	16
662.933	-15
662.965	17
662.997	2
663.029	-20
663.061	1
663.093	-8
663.125	3
663.157	2
663.189	-9
663.221	-3
663.254	-10
663.286	-1
663.318	-8
663.35	-5
663.382	4
663.414	4
663.446	27
663.478	-10
663.51	5
663.542	-1
663.574	-7
663.606	-4
663.638	-10
663.67	-16
663.702	5
663.734	-14
663.766	6
663.798	-8
663.83	5
663.862	-2
663.894	10
663.926	0
663.958	21
663.99	-2
664.022	-16
664.054	6
664.086	-6
664.118	-6
664.15	-11
664.182	2
664.214	-3
664.246	12
664.278	2
664.31	5
664.342	0
664.374	-6
664.406	6
664.438	-14
664.47	6
664.502	4
664.534	1
664.566	-10
664.598	-2
664.63	-12
664.662	5
664.693	-18
664.725	-6
664.757	10
664.789	-6
664.821	-5
664.853	12
664.885	-7
664.917	-1
664.949	2
664.981	6
665.013	-1
665.045	-22
665.076	-13
665.108	-7
665.14	-2
665.172	-10
665.204	-15
665.236	4
665.268	-8
665.3	-5
665.331	-11
665.363	-3
665.395	-25
665.427	0
665.459	0
665.491	-14
665.523	-12
665.555	6
665.586	6
665.618	7
665.65	-9
665.682	-9
665.714	1
665.746	-8
665.777	5
665.809	-8
665.841	-5
665.873	-8
665.905	15
665.937	29
665.968	8
666	-7
666.032	-3
666.064	-4
666.096	2
666.127	12
666.159	10
666.191	9
666.223	18
666.255	13
666.286	1
666.318	-4
666.35	21
666.382	7
666.413	-14
666.445	-15
666.477	-19
666.509	-4
666.54	2
666.572	-6
666.604	-9
666.636	-5
666.667	4
666.699	18
666.731	-4
666.763	8
666.794	-13
666.826	0
666.858	-13
666.89	-2
666.921	17
666.953	-3
666.985	10
667.017	13
667.048	3
667.08	-3
667.112	-12
667.143	-13
667.175	2
667.207	-2
667.238	1
667.27	2
667.302	-1
667.334	-6
667.365	11
667.397	12
667.429	-10
667.46	13
667.492	17
667.524	5
667.555	-7
667.587	9
667.619	-7
667.65	4
667.682	-1
667.714	11
667.745	-1
667.777	-1
667.808	1
667.84	4
667.872	11
667.903	19
667.935	-16
667.967	-2
667.998	-10
668.03	4
668.061	7
668.093	-3
668.125	2
668.156	10
668.188	-1
668.22	-13
668.251	-4
668.283	19
668.314	7
668.346	-1
668.377	1
668.409	0
668.441	1
668.472	-1
668.504	-3
668.535	9
668.567	16
668.599	-2
668.63	-6
668.662	-1
668.693	6
668.725	-9
668.756	21
668.788	2
668.819	-5
668.851	7
668.882	7
668.914	-11
668.946	12
668.977	3
669.009	-12
669.04	-33
669.072	-10
669.103	-1
669.135	-12
669.166	3
669.198	-4
669.229	15
669.261	-19
669.292	-14
669.324	-18
669.355	11
669.387	-3
669.418	6
669.45	-15
669.481	-10
669.513	1
669.544	-10
669.576	2
669.607	14
669.639	14
669.67	-16
669.701	18
669.733	-8
669.764	-13
669.796	-9
669.827	-7
669.859	-8
669.89	6
669.922	10
669.953	-10
669.985	-1
670.016	-4
670.047	-2
670.079	13
670.11	6
670.142	-7
670.173	-14
670.204	4
670.236	1
670.267	6
670.299	-7
670.33	5
670.362	19
670.393	-9
670.424	5
670.456	-19
670.487	4
670.518	2
670.55	6
670.581	-7
670.613	3
670.644	-13
670.675	-15
670.707	1
670.738	5
670.769	-12
670.801	4
670.832	2
670.864	8
670.895	7
670.926	-7
670.958	8
670.989	2
671.02	-13
671.052	-10
671.083	2
671.114	-5
671.146	-2
671.177	4
671.208	-3
671.24	-9
671.271	6
671.302	9
671.333	-2
671.365	-4
671.396	-5
671.427	16
671.459	4
671.49	-2
671.521	8
671.553	1
671.584	16
671.615	-8
671.646	10
671.678	1
671.709	-7
671.74	-10
671.771	-24
671.803	1
671.834	8
671.865	-16
671.896	-6
671.928	-15
671.959	-19
671.99	-9
672.021	-7
672.053	-4
672.084	4
672.115	11
672.146	-14
672.178	-23
672.209	9
672.24	3
672.271	6
672.303	4
672.334	8
672.365	-6
672.396	3
672.427	10
672.459	-3
672.49	33
672.521	26
672.552	2
672.583	-2
672.615	2
672.646	12
672.677	-6
672.708	1
672.739	13
672.77	11
672.802	4
672.833	4
672.864	-22
672.895	-10
672.926	0
672.957	-11
672.989	-18
673.02	-1
673.051	-11
673.082	10
673.113	8
673.144	-9
673.175	-2
673.206	-21
673.238	-10
673.269	-10
673.3	-10
673.331	5
673.362	3
673.393	-1
673.424	3
673.455	10
673.487	-4
673.518	-10
673.549	4
673.58	0
673.611	-7
673.642	-4
673.673	-29
673.704	-8
673.735	9
673.766	15
673.797	-13
673.828	-6
673.86	-16
673.891	-26
673.922	-19
673.953	-2
673.984	-9
674.015	5
674.046	-6
674.077	-7
674.108	-14
674.139	-18
674.17	-2
674.201	-2
674.232	-14
674.263	-4
674.294	4
674.325	-14
674.356	-11
674.387	11
674.418	7
674.449	1
674.48	-10
674.511	-2
674.542	-5
674.573	-18
674.604	4
674.635	-5
674.666	3
674.697	-6
674.728	-3
674.759	-13
674.79	-14
674.821	-2
674.852	-9
674.883	-26
674.914	-15
674.945	4
674.976	-2
675.007	1
675.038	-21
675.069	-21
675.1	-7
675.131	5
675.162	-13
675.193	-6
675.224	-8
675.254	-13
675.285	-3
675.316	-1
675.347	-9
675.378	-9
675.409	-11
675.44	-7
675.471	-2
675.502	-9
675.533	1
675.564	1
675.595	6
675.625	22
675.656	10
675.687	-3
675.718	-10
675.749	12
675.78	-4
675.811	-16
675.842	9
675.873	4
675.903	-4
675.934	-3
675.965	4
675.996	2
676.027	5
676.058	-7
676.089	-6
676.119	3
676.15	4
676.181	2
676.212	3
676.243	6
676.274	-8
676.304	6
676.335	-15
676.366	-17
676.397	-8
676.428	3
676.459	7
676.489	5
676.52	4
676.551	0
676.582	1
676.613	-1
676.643	-13
676.674	7
676.705	1
676.736	-2
676.767	6
676.797	0
676.828	-2
676.859	-3
676.89	-1
676.92	-9
676.951	0
676.982	-5
677.013	-5
677.044	21
677.074	6
677.105	2
677.136	15
677.167	-11
677.197	10
677.228	7
677.259	9
677.289	-1
677.32	-22
677.351	-5
677.382	-13
677.412	-16
677.443	4
677.474	-2
677.505	-7
677.535	-2
677.566	-6
677.597	-9
677.627	-22
677.658	1
677.689	-6
677.72	-6
677.75	-3
677.781	-5
677.812	2
677.842	-1
677.873	6
677.904	7
677.934	-2
677.965	4
677.996	-5
678.026	0
678.057	6
678.088	-11
678.118	3
678.149	-8
678.18	-4
678.21	9
678.241	7
678.272	-15
678.302	-5
678.333	5
678.363	-6
678.394	5
678.425	3
678.455	4
678.486	15
678.517	-1
678.547	5
678.578	-11
678.608	-4
678.639	8
678.67	12
678.7	-18
678.731	2
678.761	-1
678.792	2
678.823	1
678.853	2
678.884	-12
678.914	6
678.945	-3
678.975	-3
679.006	8
679.037	-18
679.067	16
679.098	-1
679.128	-13
679.159	0
679.189	4
679.22	-14
679.25	-1
679.281	-2
679.312	-6
679.342	0
679.373	4
679.403	6
679.434	12
679.464	-6
679.495	-3
679.525	1
679.556	0
679.586	-1
679.617	10
679.647	8
679.678	5
679.708	7
679.739	-10
679.769	11
679.8	-10
679.83	-2
679.861	-6
679.891	-5
679.922	-11
679.952	1
679.983	-2
680.013	1
680.044	-5
680.074	0
680.105	1
680.135	4
680.165	-1
680.196	7
680.226	9
680.257	13
680.287	10
680.318	14
680.348	-7
680.379	1
680.409	0
680.439	-21
680.47	-20
680.5	-1
680.531	0
680.561	11
680.592	6
680.622	23
680.652	1
680.683	17
680.713	1
680.744	-4
680.774	-15
680.804	9
680.835	-6
680.865	-17
680.896	11
680.926	33
680.956	-7
680.987	-17
681.017	-2
681.047	15
681.078	1
681.108	-5
681.139	9
681.169	-1
681.199	-9
681.23	-6
681.26	-6
681.29	-14
681.321	-5
681.351	13
681.381	-25
681.412	-11
681.442	-2
681.472	12
681.503	3
681.533	9
681.563	-12
681.594	-2
681.624	7
681.654	-8
681.685	-5
681.715	8
681.745	-3
681.775	5
681.806	-7
681.836	-1
681.866	-2
681.897	-5
681.927	-19
681.957	-17
681.987	12
682.018	-2
682.048	-12
682.078	-5
682.109	20
682.139	6
682.169	4
682.199	12
682.23	5
682.26	2
682.29	5
682.32	-1
682.351	-8
682.381	6
682.411	12
682.441	1
682.472	4
682.502	-4
682.532	4
682.562	2
682.592	8
682.623	5
682.653	0
682.683	-12
682.713	11
682.743	11
682.774	-1
682.804	-3
682.834	13
682.864	0
682.894	1
682.925	1
682.955	4
682.985	-6
683.015	-2
683.045	10
683.076	-7
683.106	-13
683.136	2
683.166	-17
683.196	-6
683.226	-14
683.257	-10
683.287	7
683.317	0
683.347	4
683.377	3
683.407	2
683.437	5
683.468	-1
683.498	2
683.528	-14
683.558	-1
683.588	-9
683.618	-13
683.648	-1
683.678	-6
683.708	15
683.739	9
683.769	10
683.799	4
683.829	-4
683.859	-7
683.889	23
683.919	6
683.949	3
683.979	-1
684.009	-5
684.039	10
684.07	-21
684.1	11
684.13	-2
684.16	2
684.19	-6
684.22	-8
684.25	6
684.28	2
684.31	4
684.34	3
684.37	2
684.4	-7
684.43	2
684.46	1
684.49	12
684.52	10
684.55	19
684.58	-9
684.61	0
684.64	2
684.67	4
684.7	-6
684.73	1
684.76	5
684.79	20
684.82	9
684.85	7
684.88	3
684.91	0
684.94	-6
684.97	-2
685	-24
685.03	-18
685.06	-12
685.09	-2
685.12	11
685.15	6
685.18	4
685.21	-1
685.24	23
685.27	24
685.3	-1
685.33	-10
685.36	-14
685.39	-11
685.42	-25
685.45	-6
685.48	-8
685.51	-2
685.54	8
685.569	-3
685.599	-15
685.629	9
685.659	6
685.689	1
685.719	-5
685.749	-11
685.779	-1
685.809	2
685.839	-10
685.869	-3
685.898	10
685.928	5
685.958	-17
685.988	22
686.018	0
686.048	-9
686.078	10
686.108	12
686.137	-4
686.167	6
686.197	-11
686.227	-11
686.257	34
686.287	2
686.317	11
686.346	4
686.376	-6
686.406	-19
686.436	12
686.466	2
686.496	-2
686.525	7
686.555	6
686.585	14
686.615	32
686.645	16
686.675	3
686.704	11
686.734	-1
686.764	-16
686.794	-6
686.824	-21
686.853	12
686.883	11
686.913	6
686.943	13
686.973	-11
687.002	-9
687.032	-8
687.062	0
687.092	18
687.121	-2
687.151	6
687.181	9
687.211	11
687.24	2
687.27	-4
687.3	3
687.33	-5
687.359	-16
687.389	27
687.419	7
687.449	5
687.478	27
687.508	-6
687.538	-15
687.568	3
687.597	-5
687.627	2
687.657	10
687.686	-7
687.716	15
687.746	-13
687.776	11
687.805	18
687.835	-12
687.865	23
687.894	9
687.924	0
687.954	-9
687.983	6
688.013	-10
688.043	-2
688.072	1
688.102	6
688.132	-11
688.161	-5
688.191	-7
688.221	6
688.25	-12
688.28	5
688.31	-4
688.339	1
688.369	-11
688.399	-25
688.428	-14
688.458	5
688.488	4
688.517	14
688.547	3
688.576	18
688.606	5
688.636	-11
688.665	-8
688.695	5
688.725	-13
688.754	0
688.784	-1
688.813	4
688.843	0
688.873	-4
688.902	-7
688.932	-7
688.961	6
688.991	13
689.02	7
689.05	-7
689.08	10
689.109	8
689.139	5
689.168	10
689.198	-11
689.227	-19
689.257	1
689.287	16
689.316	-2
689.346	-4
689.375	-8
689.405	6
689.434	-15
689.464	-2
689.493	-6
689.523	-6
689.552	-9
689.582	-5
689.611	1
689.641	4
689.67	-15
689.7	4
689.73	10
689.759	-10
689.789	10
689.818	3
689.848	11
689.877	18
689.906	-7
689.936	-18
689.965	1
689.995	14
690.024	11
690.054	-6
690.083	-1
690.113	0
690.142	0
690.172	3
690.201	8
690.231	5
690.26	1
690.29	1
690.319	5
690.348	-5
690.378	7
690.407	19
690.437	-8
690.466	7
690.496	-4
690.525	7
690.555	-7
690.584	4
690.613	2
690.643	6
690.672	4
690.702	5
690.731	-24
690.76	2
690.79	-5
690.819	-2
690.849	-12
690.878	-1
690.907	-6
690.937	3
690.966	6
690.996	-6
691.025	-17
691.054	-1
691.084	10
691.113	1
691.142	-7
691.172	-4
691.201	13
691.23	-6
691.26	10
691.289	15
691.319	-2
691.348	22
691.377	12
691.407	18
691.436	24
691.465	4
691.495	-7
691.524	-17
691.553	-17
691.583	1
691.612	22
691.641	-2
691.67	-9
691.7	7
691.729	-25
691.758	-11
691.788	-5
691.817	-13
691.846	-15
691.876	2
691.905	5
691.934	-2
691.963	10
691.993	2
692.022	-6
692.051	-13
692.081	9
692.11	11
692.139	-3
692.168	14
692.198	8
692.227	-1
692.256	14
692.285	7
692.315	-12
692.344	-2
692.373	2
692.402	-8
692.432	-16
692.461	13
692.49	1
692.519	-7
692.548	-1
692.578	1
692.607	-5
692.636	-19
692.665	3
692.694	0
692.724	1
692.753	-8
692.782	4
692.811	-9
692.84	-2
692.87	2
692.899	-2
692.928	-1
692.957	-6
692.986	-5
693.016	9
693.045	7
693.074	5
693.103	7
693.132	-8
693.161	-3
693.191	6
693.22	-3
693.249	-14
693.278	-15
693.307	14
693.336	-8
693.365	-12
693.395	-10
693.424	-2
693.453	-3
693.482	-4
693.511	9
693.54	16
693.569	3
693.598	-9
693.628	7
693.657	6
693.686	11
693.715	5
693.744	10
693.773	4
693.802	7
693.831	-8
693.86	11
693.889	-6
693.919	6
693.948	-7
693.977	3
694.006	7
694.035	9
694.064	7
694.093	6
694.122	6
694.151	4
694.18	0
694.209	28
694.238	9
694.267	24
694.296	21
694.325	5
694.354	15
694.383	1
694.412	-20
694.441	-14
694.471	-11
694.5	-15
694.529	11
694.558	21
694.587	20
694.616	-2
694.645	1
694.674	19
694.703	8
694.732	-17
694.761	16
694.79	-1
694.819	-8
694.848	10
694.877	13
694.906	16
694.935	8
694.963	32
694.992	5
695.021	1
695.05	3
695.079	7
695.108	2
695.137	12
695.166	0
695.195	-6
695.224	-2
695.253	9
695.282	13
695.311	1
695.34	6
695.369	8
695.398	2
695.427	26
695.456	7
695.485	-1
695.513	-9
695.542	-6
695.571	12
695.6	15
695.629	24
695.658	25
695.687	3
695.716	-11
695.745	10
695.774	-6
695.802	3
695.831	2
695.86	13
695.889	-6
695.918	6
695.947	-6
695.976	-9
696.005	-10
696.033	11
696.062	14
696.091	14
696.12	0
696.149	10
696.178	1
696.207	2
696.235	-18
696.264	12
696.293	8
696.322	-16
696.351	3
696.38	-22
696.408	6
696.437	3
696.466	-4
696.495	21
696.524	0
696.553	16
696.581	7
696.61	-3
696.639	-9
696.668	7
696.697	-15
696.725	-6
696.754	8
696.783	-6
696.812	-6
696.84	9
696.869	20
696.898	-1
696.927	-2
696.956	10
696.984	4
697.013	-10
697.042	2
697.071	5
697.099	1
697.128	3
697.157	10
697.186	-3
697.214	-2
697.243	-5
697.272	1
697.301	11
697.329	8
697.358	19
697.387	29
697.415	10
697.444	9
697.473	16
697.502	-5
697.53	1
697.559	2
697.588	15
697.616	0
697.645	-1
697.674	9
697.703	3
697.731	12
697.76	5
697.789	2
697.817	3
697.846	15
697.875	6
697.903	15
697.932	18
697.961	18
697.989	24
698.018	2
698.047	0
698.075	6
698.104	3
698.133	-13
698.161	-8
698.19	7
698.218	-13
698.247	8
698.276	-2
698.304	7
698.333	6
698.362	8
698.39	2
698.419	15
698.447	2
698.476	5
698.505	5
698.533	5
698.562	10
698.591	-4
698.619	-24
698.648	8
698.676	8
698.705	3
698.733	-4
698.762	-11
698.791	-6
698.819	-5
698.848	4
698.876	-1
698.905	5
698.933	-2
698.962	2
698.991	2
699.019	12
699.048	5
699.076	5
699.105	-6
699.133	-8
699.162	-2
699.19	16
699.219	15
699.248	4
699.276	7
699.305	-10
699.333	15
699.362	13
699.39	17
699.419	-11
699.447	3
699.476	6
699.504	12
699.533	-2
699.561	3
699.59	3
699.618	-7
699.647	-6
699.675	2
699.704	-11
699.732	0
699.761	18
699.789	12
699.818	-6
699.846	-8
699.874	-8
699.903	-8
699.931	-10
699.96	0
699.988	4
700.017	-16
700.045	-6
700.074	-7
700.102	7
700.13	5
700.159	2
700.187	-7
700.216	5
700.244	15
700.273	3
700.301	12
700.329	22
700.358	-1
700.386	-3
700.415	-2
700.443	7
700.472	1
700.5	18
700.528	19
700.557	-10
700.585	-13
700.614	-5
700.642	11
700.67	11
700.699	15
700.727	-8
700.755	5
700.784	7
700.812	-11
700.841	11
700.869	4
700.897	-5
700.926	-10
700.954	6
700.982	14
701.011	6
701.039	0
701.067	-9
701.096	-1
701.124	-11
701.152	-2
701.181	-7
701.209	-5
701.237	0
701.266	1
701.294	2
701.322	-10
701.351	1
701.379	3
701.407	-9
701.435	-3
701.464	10
701.492	19
701.52	-22
701.549	21
701.577	0
701.605	-3
701.634	-13
701.662	-1
701.69	-12
701.718	-15
701.747	-3
701.775	3
701.803	-8
701.831	25
701.86	8
701.888	6
701.916	-2
701.944	2
701.973	1
702.001	-13
702.029	0
702.057	-7
702.086	-14
702.114	-27
702.142	-7
702.17	-3
702.199	1
702.227	0
702.255	1
702.283	-8
702.311	6
702.34	9
702.368	-3
702.396	2
702.424	-3
702.452	10
702.481	3
702.509	1
702.537	7
702.565	6
702.593	-23
702.621	-1
702.65	-1
702.678	6
702.706	14
702.734	-9
702.762	-2
702.79	6
702.819	27
702.847	5
702.875	11
702.903	2
702.931	-13
702.959	-5
702.988	4
703.016	-4
703.044	-10
703.072	-8
703.1	0
703.128	-3
703.156	-2
703.184	-19
703.212	3
703.241	6
703.269	-3
703.297	-10
703.325	3
703.353	0
703.381	-11
703.409	10
703.437	-9
703.465	5
703.493	-3
703.522	1
703.55	7
703.578	19
703.606	4
703.634	0
703.662	-1
703.69	-14
703.718	0
703.746	15
703.774	-4
703.802	25
703.83	14
703.858	0
703.886	-14
703.914	-10
703.942	14
703.97	-9
703.998	-20
704.027	5
704.055	4
704.083	-7
704.111	-15
704.139	-15
704.167	-2
704.195	6
704.223	-3
704.251	-6
704.279	4
704.307	-1
704.335	-14
704.363	-4
704.391	0
704.419	-17
704.447	-21
704.475	-17
704.503	-7
704.531	21
704.558	5
704.586	-9
704.614	-6
704.642	6
704.67	-15
704.698	-2
704.726	6
704.754	-1
704.782	8
704.81	-4
704.838	20
704.866	-2
704.894	-24
704.922	-2
704.95	-4
704.978	26
705.006	7
705.034	4
705.061	-1
705.089	-6
705.117	-8
705.145	9
705.173	9
705.201	-5
705.229	3
705.257	7
705.285	7
705.313	7
705.34	-15
705.368	-3
705.396	2
705.424	3
705.452	-11
705.48	-2
705.508	2
705.536	10
705.563	-5
705.591	9
705.619	9
705.647	-10
705.675	-2
705.703	5
705.731	-5
705.758	-6
705.786	-3
705.814	11
705.842	5
705.87	-1
705.898	5
705.925	-3
705.953	13
705.981	-15
706.009	-6
706.037	4
706.065	4
706.092	-9
706.12	-4
706.148	-2
706.176	-5
706.204	13
706.231	13
706.259	-12
706.287	-19
706.315	3
706.342	7
706.37	11
706.398	11
706.426	-5
706.454	0
706.481	21
706.509	10
706.537	-17
706.565	1
706.592	14
706.62	-5
706.648	0
706.676	5
706.703	-10
706.731	-13
706.759	-11
706.787	1
706.814	-2
706.842	-8
706.87	-1
706.897	-6
706.925	-3
706.953	11
706.981	12
707.008	12
707.036	23
707.064	-5
707.091	-8
707.119	15
707.147	4
707.174	-8
707.202	-2
707.23	-7
707.258	-1
707.285	3
707.313	2
707.341	-2
707.368	1
707.396	12
707.424	4
707.451	-9
707.479	0
707.507	-2
707.534	-18
707.562	-11
707.59	0
707.617	-10
707.645	6
707.672	10
707.7	5
707.728	1
707.755	1
707.783	-17
707.811	-3
707.838	-11
707.866	1
707.893	-5
707.921	-12
707.949	-22
707.976	19
708.004	9
708.031	-1
708.059	-9
708.087	4
708.114	-2
708.142	-3
708.169	-22
708.197	-16
708.225	6
708.252	-14
708.28	-1
708.307	-3
708.335	8
708.362	-13
708.39	-21
708.418	-9
708.445	-16
708.473	-20
708.5	-15
708.528	11
708.555	11
708.583	-13
708.61	3
708.638	-10
708.665	-9
708.693	3
708.72	-15
708.748	-17
708.776	-13
708.803	13
708.831	-6
708.858	4
708.886	-5
708.913	2
708.941	-14
708.968	-11
708.996	1
709.023	27
709.051	-11
709.078	-16
709.105	-7
709.133	-5
709.16	0
709.188	4
709.215	12
709.243	15
709.27	2
709.298	1
709.325	-27
709.353	-9
709.38	2
709.408	15
709.435	2
709.462	9
709.49	-3
709.517	-8
709.545	-9
709.572	-20
709.6	-7
709.627	0
709.655	-7
709.682	-11
709.709	-13
709.737	-7
709.764	-15
709.792	14
709.819	-9
709.846	-11
709.874	-6
709.901	-2
709.929	13
709.956	4
709.983	-14
710.011	-4
710.038	3
710.066	-1
710.093	8
710.12	3
710.148	-7
710.175	-3
710.202	7
710.23	8
710.257	-5
710.284	7
710.312	4
710.339	10
710.366	1
710.394	-8
710.421	-9
710.448	7
710.476	-7
710.503	11
710.53	23
710.558	17
710.585	17
710.612	6
710.64	16
710.667	-10
710.694	-5
710.722	2
710.749	2
710.776	19
710.804	12
710.831	6
710.858	-9
710.885	-6
710.913	-4
710.94	10
710.967	-11
710.995	11
711.022	-7
711.049	-7
711.076	-12
711.104	2
711.131	-9
711.158	-4
711.185	2
711.213	-5
711.24	-12
711.267	-9
711.294	12
711.322	13
711.349	-4
711.376	-9
711.403	-7
711.431	-9
711.458	-3
711.485	4
711.512	-7
711.54	-3
711.567	-12
711.594	-12
711.621	-22
711.648	8
711.676	10
711.703	7
711.73	-15
711.757	7
711.784	-8
711.812	5
711.839	9
711.866	-11
711.893	-16
711.92	-5
711.947	-6
711.975	-3
712.002	-10
712.029	-5
712.056	-8
712.083	11
712.11	-26
712.138	6
712.165	9
712.192	0
712.219	-9
712.246	-18
712.273	-7
712.3	-5
712.328	16
712.355	1
712.382	-13
712.409	6
712.436	-11
712.463	-10
712.49	14
712.517	-13
712.544	8
712.572	-7
712.599	1
712.626	2
712.653	-11
712.68	-8
712.707	10
712.734	-2
712.761	-2
712.788	4
712.815	9
712.842	15
712.87	-2
712.897	-13
712.924	-9
712.951	-2
712.978	7
713.005	5
713.032	0
713.059	-22
713.086	-12
713.113	-17
713.14	5
713.167	6
713.194	-1
713.221	-13
713.248	-12
713.275	-15
713.302	-13
713.329	3
713.356	13
713.383	3
713.41	3
713.437	-21
713.464	-5
713.491	9
713.518	-5
713.545	-4
713.572	-8
713.599	6
713.626	2
713.653	15
713.68	0
713.707	-9
713.734	-13
713.761	-9
713.788	-10
713.815	6
713.842	-6
713.869	-3
713.896	-6
713.923	3
713.95	13
713.977	-7
714.004	-5
714.031	-4
714.058	5
714.085	1
714.112	9
714.139	3
714.165	4
714.192	-11
714.219	2
714.246	-2
714.273	-11
714.3	2
714.327	3
714.354	5
714.381	-7
714.408	1
714.435	-6
714.461	2
714.488	13
714.515	6
714.542	-6
714.569	0
714.596	0
714.623	-12
714.65	-18
714.677	-1
714.703	-3
714.73	-21
714.757	2
714.784	5
714.811	-17
714.838	-7
714.865	-3
714.891	-6
714.918	-4
714.945	-8
714.972	-13
714.999	-7
715.026	-10
715.052	7
715.079	-2
715.106	0
715.133	9
715.16	-6
715.187	1
715.213	3
715.24	-12
715.267	-3
715.294	-8
715.321	7
715.347	7
715.374	-1
715.401	-4
715.428	-8
715.455	11
715.481	-8
715.508	0
715.535	-11
715.562	22
715.588	-10
715.615	-1
715.642	-2
715.669	8
715.695	-9
715.722	-1
715.749	-12
715.776	-12
715.802	-13
715.829	-10
715.856	-17
715.883	-3
715.909	-13
715.936	-14
715.963	10
715.99	-2
716.016	3
716.043	-15
716.07	2
716.096	-11
716.123	2
716.15	-4
716.177	-1
716.203	11
716.23	24
716.257	5
716.283	12
716.31	13
716.337	1
716.363	-3
716.39	2
716.417	26
716.443	2
716.47	22
716.497	6
716.523	1
716.55	3
716.577	5
716.603	-7
716.63	15
716.657	7
716.683	-16
716.71	-3
716.737	-1
716.763	8
716.79	6
716.817	5
716.843	0
716.87	-3
716.897	-7
716.923	6
716.95	10
716.976	-4
717.003	0
717.03	8
717.056	10
717.083	5
717.109	5
717.136	10
717.163	-3
717.189	0
717.216	-2
717.242	-19
717.269	9
717.296	8
717.322	8
717.349	21
717.375	4
717.402	-2
717.428	-15
717.455	-3
717.481	-1
717.508	11
717.535	-12
717.561	6
717.588	-14
717.614	-6
717.641	-2
717.667	5
717.694	-10
717.72	-14
717.747	-5
717.773	-5
717.8	3
717.826	0
717.853	-1
717.88	-2
717.906	2
717.933	14
717.959	14
717.986	-1
718.012	-13
718.039	2
718.065	-1
718.092	4
718.118	-29
718.144	-9
718.171	15
718.197	26
718.224	-8
718.25	-4
718.277	14
718.303	-8
718.33	13
718.356	4
718.383	-17
718.409	-6
718.436	6
718.462	3
718.489	-11
718.515	8
718.541	27
718.568	0
718.594	15
718.621	2
718.647	-3
718.674	6
718.7	5
718.726	0
718.753	11
718.779	14
718.806	2
718.832	-2
718.858	-5
718.885	-3
718.911	7
718.938	3
718.964	-16
718.99	0
719.017	9
719.043	6
719.07	20
719.096	-12
719.122	14
719.149	-14
719.175	-2
719.201	8
719.228	5
719.254	-9
719.281	-3
719.307	-10
719.333	-18
719.36	4
719.386	5
719.412	-5
719.439	7
719.465	-11
719.491	-8
719.518	15
719.544	-2
719.57	3
719.597	6
719.623	6
719.649	-18
719.675	-5
719.702	-4
719.728	4
719.754	-27
719.781	-10
719.807	-3
719.833	8
719.86	-10
719.886	7
719.912	0
719.938	-15
719.965	8
719.991	3
720.017	-1
720.044	-2
720.07	-9
720.096	6
720.122	1
720.149	6
720.175	22
720.201	-9
720.227	5
720.254	-8
720.28	-1
720.306	1
720.332	-6
720.359	6
720.385	-3
720.411	-1
720.437	2
720.463	-7
720.49	5
720.516	4
720.542	-7
720.568	6
720.595	-5
720.621	-14
720.647	11
720.673	17
720.699	9
720.725	-7
720.752	-6
720.778	8
720.804	22
720.83	17
720.856	1
720.883	-18
720.909	-11
720.935	9
720.961	5
720.987	-2
721.013	-11
721.04	-1
721.066	6
721.092	-14
721.118	2
721.144	-12
721.17	-12
721.196	2
721.223	-3
721.249	10
721.275	28
721.301	-17
721.327	4
721.353	12
721.379	-7
721.405	2
721.432	2
721.458	-8
721.484	16
721.51	-15
721.536	-2
721.562	-3
721.588	-10
721.614	-7
721.64	-2
721.666	4
721.693	15
721.719	-7
721.745	-3
721.771	4
721.797	6
721.823	-6
721.849	14
721.875	13
721.901	3
721.927	-2
721.953	-3
721.979	16
722.005	-6
722.031	-11
722.057	1
722.083	2
722.109	5
722.135	1
722.161	7
722.187	5
722.214	-10
722.24	6
722.266	-5
722.292	4
722.318	3
722.344	-7
722.37	11
722.396	8
722.422	1
722.448	3
722.474	-9
722.5	-5
722.526	-5
722.552	-13
722.578	-2
722.603	-9
722.629	-3
722.655	5
722.681	-3
722.707	2
722.733	-1
722.759	-5
722.785	-7
722.811	-3
722.837	-2
722.863	8
722.889	11
722.915	-16
722.941	-3
722.967	1
722.993	9
723.019	3
723.045	7
723.071	6
723.097	12
723.122	-9
723.148	-13
723.174	4
723.2	-11
723.226	-11
723.252	-2
723.278	-13
723.304	-6
723.33	0
723.356	-10
723.381	-16
723.407	3
723.433	6
723.459	-5
723.485	3
723.511	17
723.537	-7
723.563	-7
723.588	5
723.614	-1
723.64	-10
723.666	-5
723.692	14
723.718	6
723.744	2
723.769	2
723.795	-1
723.821	-4
723.847	-9
723.873	-9
723.899	12
723.924	7
723.95	3
723.976	0
724.002	-1
724.028	8
724.053	-13
724.079	13
724.105	-3
724.131	0
724.157	19
724.182	7
724.208	11
724.234	17
724.26	5
724.286	6
724.311	-6
724.337	-2
724.363	-6
724.389	18
724.415	1
724.44	10
724.466	-8
724.492	3
724.518	-3
724.543	-2
724.569	0
724.595	0
724.621	-12
724.646	-7
724.672	-13
724.698	-6
724.723	1
724.749	-1
724.775	13
724.801	11
724.826	-9
724.852	-11
724.878	-19
724.904	-23
724.929	-8
724.955	-11
724.981	-15
725.006	-4
725.032	-10
725.058	7
725.083	-8
725.109	6
725.135	6
725.161	6
725.186	2
725.212	-7
725.238	10
725.263	-5
725.289	3
725.315	-19
725.34	-6
725.366	-10
725.392	-4
725.417	-6
725.443	-5
725.468	-2
725.494	13
725.52	15
725.545	-2
725.571	0
725.597	-10
725.622	-1
725.648	-2
725.674	1
725.699	-12
725.725	-3
725.75	11
725.776	-5
725.802	2
725.827	4
725.853	-8
725.878	2
725.904	0
725.93	-10
725.955	-23
725.981	-7
726.006	-14
726.032	2
726.057	-4
726.083	-2
726.109	-18
726.134	-3
726.16	1
726.185	6
726.211	-13
726.236	8
726.262	-1
726.288	12
726.313	1
726.339	9
726.364	-11
726.39	7
726.415	16
726.441	-5
726.466	-14
726.492	-3
726.517	-6
726.543	-7
726.568	-14
726.594	-7
726.619	1
726.645	-5
726.67	0
726.696	4
726.721	1
726.747	-5
726.772	4
726.798	-6
726.823	1
726.849	-6
726.874	-7
726.9	15
726.925	0
726.951	-3
726.976	5
727.002	-5
727.027	14
727.053	20
727.078	-12
727.104	-1
727.129	-5
727.155	-8
727.18	-2
727.205	-8
727.231	-10
727.256	2
727.282	-6
727.307	7
727.333	6
727.358	-7
727.383	-5
727.409	-3
727.434	4
727.46	1
727.485	-6
727.511	2
727.536	-15
727.561	-17
727.587	-9
727.612	-2
727.637	-7
727.663	-13
727.688	-2
727.714	-12
727.739	-8
727.764	1
727.79	-4
727.815	7
727.841	12
727.866	-2
727.891	-8
727.917	6
727.942	-8
727.967	-4
727.993	-19
728.018	9
728.043	-6
728.069	13
728.094	16
728.119	-17
728.145	10
728.17	3
728.195	6
728.221	16
728.246	2
728.271	-15
728.297	1
728.322	14
728.347	3
728.373	10
728.398	-10
728.423	-10
728.448	-6
728.474	1
728.499	2
728.524	-7
728.55	-3
728.575	-2
728.6	-6
728.625	-13
728.651	13
728.676	1
728.701	7
728.727	5
728.752	-5
728.777	6
728.802	-17
728.828	14
728.853	6
728.878	-1
728.903	-2
728.929	-22
728.954	-6
728.979	8
729.004	5
729.03	-6
729.055	6
729.08	-11
729.105	-22
729.13	0
729.156	5
729.181	-11
729.206	-13
729.231	-16
729.256	10
729.282	11
729.307	-10
729.332	-2
729.357	-11
729.382	9
729.408	-8
729.433	-5
729.458	2
729.483	18
729.508	18
729.533	8
729.559	-3
729.584	-6
729.609	3
729.634	1
729.659	-7
729.684	-17
729.71	15
729.735	0
729.76	-2
729.785	-23
729.81	-2
729.835	-10
729.86	-7
729.886	10
729.911	9
729.936	2
729.961	19
729.986	-1
730.011	15
730.036	-3
730.061	8
730.086	14
730.112	-8
730.137	10
730.162	9
730.187	-5
730.212	0
730.237	-11
730.262	-15
730.287	-6
730.312	14
730.337	-2
730.362	8
730.387	-6
730.413	-2
730.438	-18
730.463	2
730.488	-2
730.513	0
730.538	-7
730.563	2
730.588	19
730.613	2
730.638	-7
730.663	0
730.688	11
730.713	2
730.738	3
730.763	-9
730.788	-15
730.813	14
730.838	-4
730.863	3
730.888	-7
730.913	-7
730.938	-18
730.963	5
730.988	-6
731.013	10
731.038	-5
731.063	-10
731.088	-3
731.113	-14
731.138	-8
731.163	-9
731.188	-5
731.213	3
731.238	20
731.263	-6
731.288	6
731.313	2
731.338	-8
731.363	9
731.388	-5
731.413	-5
731.438	10
731.463	12
731.487	3
731.512	-2
731.537	-17
731.562	-3
731.587	15
731.612	-9
731.637	-11
731.662	-8
731.687	6
731.712	-18
731.737	-1
731.762	-4
731.786	-7
731.811	4
731.836	4
731.861	4
731.886	6
731.911	5
731.936	19
731.961	7
731.986	-10
732.01	-10
732.035	-13
732.06	5
732.085	-8
732.11	6
732.135	-12
732.16	-3
732.184	12
732.209	1
732.234	6
732.259	-2
732.284	5
732.309	8
732.334	6
732.358	-8
732.383	-14
732.408	-7
732.433	2
732.458	-5
732.482	1
732.507	6
732.532	8
732.557	5
732.582	3
732.607	-6
732.631	-8
732.656	-5
732.681	5
732.706	5
732.73	2
732.755	4
732.78	-5
732.805	3
732.83	-1
732.854	-4
732.879	5
732.904	-6
732.929	-3
732.953	1
732.978	-21
733.003	-22
733.028	-2
733.052	1
733.077	4
733.102	11
733.127	-5
733.151	7
733.176	-1
733.201	12
733.226	1
733.25	-1
733.275	-8
733.3	2
733.324	9
733.349	4
733.374	26
733.399	-1
733.423	-6
733.448	-10
733.473	9
733.497	-2
733.522	-3
733.547	13
733.571	3
733.596	-2
733.621	-4
733.646	-8
733.67	17
733.695	18
733.72	3
733.744	14
733.769	18
733.794	19
733.818	0
733.843	-2
733.867	-1
733.892	-3
733.917	-11
733.941	-5
733.966	-6
733.991	-7
734.015	22
734.04	6
734.065	1
734.089	9
734.114	-7
734.138	2
734.163	-5
734.188	-6
734.212	1
734.237	12
734.261	-1
734.286	-15
734.311	1
734.335	11
734.36	-1
734.384	0
734.409	3
734.434	-7
734.458	3
734.483	-1
734.507	-12
734.532	2
734.556	-8
734.581	-2
734.606	19
734.63	-1
734.655	5
734.679	1
734.704	8
734.728	-7
734.753	-7
734.777	5
734.802	-17
734.826	-11
734.851	-15
734.876	-6
734.9	22
734.925	12
734.949	3
734.974	-2
734.998	5
735.023	-5
735.047	-8
735.072	9
735.096	1
735.121	-2
735.145	2
735.17	6
735.194	-5
735.219	-1
735.243	-4
735.268	8
735.292	10
735.317	5
735.341	4
735.365	-9
735.39	-5
735.414	-5
735.439	-3
735.463	10
735.488	3
735.512	-2
735.537	2
735.561	0
735.586	11
735.61	5
735.634	-7
735.659	18
735.683	14
735.708	-2
735.732	-15
735.757	-6
735.781	5
735.805	-9
735.83	-19
735.854	-10
735.879	-8
735.903	10
735.927	14
735.952	12
735.976	-16
736.001	-10
736.025	-7
736.049	1
736.074	-13
736.098	-8
736.123	-7
736.147	-1
736.171	2
736.196	8
736.22	-7
736.244	-10
736.269	7
736.293	4
736.317	5
736.342	14
736.366	7
736.39	2
736.415	12
736.439	-6
736.463	7
736.488	15
736.512	-1
736.536	4
736.561	14
736.585	1
736.609	5
736.634	-10
736.658	2
736.682	-8
736.707	-10
736.731	-4
736.755	7
736.78	4
736.804	7
736.828	10
736.852	8
736.877	1
736.901	-3
736.925	-3
736.949	-1
736.974	-9
736.998	-9
737.022	-5
737.047	-9
737.071	2
737.095	12
737.119	16
737.144	17
737.168	-9
737.192	-7
737.216	13
737.241	6
737.265	10
737.289	-6
737.313	-1
737.337	17
737.362	-1
737.386	-23
737.41	5
737.434	2
737.459	5
737.483	-1
737.507	6
737.531	2
737.555	1
737.58	3
737.604	9
737.628	-9
737.652	-9
737.676	-21
737.701	-3
737.725	1
737.749	-2
737.773	-3
737.797	-15
737.821	-1
737.846	-1
737.87	15
737.894	1
737.918	-13
737.942	-10
737.966	-2
737.99	4
738.015	-7
738.039	13
738.063	-7
738.087	-4
738.111	-13
738.135	11
738.159	7
738.184	7
738.208	0
738.232	17
738.256	25
738.28	7
738.304	12
738.328	-8
738.352	7
738.376	0
738.4	5
738.425	-1
738.449	-10
738.473	10
738.497	11
738.521	5
738.545	7
738.569	5
738.593	-8
738.617	8
738.641	4
738.665	9
738.689	12
738.713	-2
738.737	-9
738.762	18
738.786	-3
738.81	-17
738.834	25
738.858	-11
738.882	13
738.906	-4
738.93	13
738.954	15
738.978	1
739.002	0
739.026	11
739.05	-2
739.074	-7
739.098	7
739.122	6
739.146	0
739.17	9
739.194	6
739.218	2
739.242	-8
739.266	-4
739.29	-7
739.314	4
739.338	-16
739.362	0
739.386	3
739.41	-11
739.434	-7
739.458	24
739.482	1
739.506	8
739.53	0
739.554	14
739.577	2
739.601	4
739.625	-7
739.649	4
739.673	-7
739.697	17
739.721	6
739.745	3
739.769	5
739.793	-1
739.817	10
739.841	3
739.865	-16
739.889	-7
739.912	-3
739.936	-5
739.96	12
739.984	13
740.008	6
740.032	0
740.056	6
740.08	9
740.104	1
740.127	9
740.151	6
740.175	0
740.199	-3
740.223	39
740.247	-3
740.271	6
740.295	-4
740.318	-15
740.342	-9
740.366	-1
740.39	5
740.414	-24
740.438	-10
740.461	4
740.485	-6
740.509	-15
740.533	1
740.557	-10
740.581	-2
740.604	4
740.628	4
740.652	21
740.676	-12
740.7	6
740.723	-6
740.747	0
740.771	-6
740.795	-10
740.819	6
740.842	-4
740.866	12
740.89	2
740.914	-3
740.938	-9
740.961	5
740.985	16
741.009	1
741.033	-3
741.056	13
741.08	1
741.104	-14
741.128	-1
741.151	0
741.175	6
741.199	1
741.223	4
741.246	-11
741.27	-15
741.294	14
741.318	-15
741.341	-18
741.365	2
741.389	0
741.413	16
741.436	2
741.46	6
741.484	10
741.507	3
741.531	7
741.555	12
741.579	-9
741.602	5
741.626	8
741.65	-9
741.673	0
741.697	1
741.721	-1
741.744	-28
741.768	-9
741.792	1
741.815	-3
741.839	4
741.863	9
741.886	-17
741.91	2
741.934	13
741.957	-10
741.981	7
742.005	-2
742.028	-5
742.052	-13
742.075	-3
742.099	12
742.123	-2
742.146	3
742.17	-2
742.194	-22
742.217	-2
742.241	9
742.264	-14
742.288	14
742.312	8
742.335	5
742.359	10
742.382	0
742.406	7
742.43	-2
742.453	-1
742.477	-2
742.5	12
742.524	-3
742.548	-5
742.571	2
742.595	-13
742.618	-16
742.642	-4
742.665	5
742.689	-3
742.712	1
742.736	1
742.76	-5
742.783	-7
742.807	4
742.83	1
742.854	-16
742.877	-3
742.901	10
742.924	-3
742.948	11
742.971	8
742.995	5
743.018	-15
743.042	5
743.065	-3
743.089	-3
743.112	2
743.136	-6
743.159	-6
743.183	-5
743.206	15
743.23	-17
743.253	1
743.277	-1
743.3	-16
743.324	-1
743.347	-1
743.371	5
743.394	18
743.418	23
743.441	13
743.465	7
743.488	8
743.512	-11
743.535	-14
743.558	-5
743.582	1
743.605	0
743.629	8
743.652	-1
743.676	-10
743.699	10
743.723	20
743.746	-6
743.769	-14
743.793	2
743.816	-3
743.84	5
743.863	-6
743.886	-3
743.91	7
743.933	-3
743.957	-1
743.98	-6
744.003	-2
744.027	3
744.05	-8
744.074	4
744.097	-12
744.12	-6
744.144	-5
744.167	-2
744.19	-2
744.214	-5
744.237	-20
744.26	5
744.284	-10
744.307	0
744.331	12
744.354	-15
744.377	-12
744.401	-10
744.424	-11
744.447	-14
744.471	-1
