Data from HighRes_H2_15_09_11_07_2024_HR4C61891__129__15-11-09-301.txt Node

Date: Thu Nov 07 15:11:09 EST 2024
User: crc00042
Spectrometer: HR4C6189
Trigger mode: 4
Integration Time (sec): 1.000000E-1
Scans to average: 1
Electric dark correction enabled: true
Nonlinearity correction enabled: false
Boxcar width: 0
XAxis mode: Wavelengths
Number of Pixels in Spectrum: 3648
>>>>>Begin Spectral Data<<<<<
639.567	-28
639.602	-28
639.636	-28
639.67	-31
639.704	-14
639.738	9
639.773	5
639.807	-4
639.841	5
639.875	7
639.909	0
639.943	11
639.978	-1
640.012	1
640.046	9
640.08	-10
640.114	-20
640.148	-12
640.182	-3
640.217	15
640.251	20
640.285	10
640.319	-2
640.353	5
640.387	7
640.421	-7
640.455	1
640.49	10
640.524	1
640.558	13
640.592	-1
640.626	-14
640.66	-2
640.694	-16
640.728	24
640.762	0
640.796	17
640.83	25
640.865	9
640.899	13
640.933	-3
640.967	6
641.001	7
641.035	-5
641.069	-6
641.103	-8
641.137	2
641.171	-23
641.205	11
641.239	-2
641.273	7
641.307	0
641.341	-11
641.375	1
641.409	0
641.443	3
641.477	8
641.511	-4
641.545	14
641.579	-15
641.614	7
641.648	2
641.682	-10
641.716	21
641.75	26
641.784	2
641.818	-5
641.852	20
641.886	6
641.919	40
641.953	7
641.987	-21
642.021	-3
642.055	8
642.089	14
642.123	-14
642.157	-4
642.191	0
642.225	1
642.259	4
642.293	24
642.327	17
642.361	1
642.395	14
642.429	14
642.463	5
642.497	21
642.531	11
642.565	-8
642.599	11
642.633	-8
642.666	9
642.7	21
642.734	9
642.768	-13
642.802	-2
642.836	3
642.87	-7
642.904	3
642.938	8
642.972	3
643.005	10
643.039	10
643.073	3
643.107	-3
643.141	0
643.175	11
643.209	12
643.243	5
643.276	0
643.31	9
643.344	-2
643.378	-3
643.412	-5
643.446	3
643.48	2
643.513	-10
643.547	-7
643.581	6
643.615	10
643.649	4
643.683	4
643.716	2
643.75	17
643.784	-17
643.818	-4
643.852	-8
643.886	2
643.919	1
643.953	4
643.987	-6
644.021	5
644.055	3
644.088	2
644.122	-7
644.156	1
644.19	3
644.224	2
644.257	22
644.291	21
644.325	9
644.359	-7
644.392	29
644.426	9
644.46	11
644.494	14
644.527	6
644.561	1
644.595	5
644.629	-8
644.662	-7
644.696	8
644.73	3
644.764	12
644.797	5
644.831	-12
644.865	0
644.899	3
644.932	19
644.966	4
645	21
645.033	26
645.067	-1
645.101	-8
645.135	7
645.168	2
645.202	6
645.236	12
645.269	-1
645.303	-8
645.337	-25
645.37	4
645.404	2
645.438	3
645.471	-11
645.505	19
645.539	7
645.572	-8
645.606	-7
645.64	20
645.673	-2
645.707	15
645.741	2
645.774	-9
645.808	20
645.842	-10
645.875	1
645.909	6
645.943	5
645.976	-2
646.01	6
646.043	-1
646.077	16
646.111	7
646.144	-2
646.178	1
646.212	-5
646.245	3
646.279	17
646.312	8
646.346	36
646.38	6
646.413	3
646.447	9
646.48	1
646.514	17
646.547	13
646.581	11
646.615	4
646.648	-3
646.682	1
646.715	-9
646.749	12
646.782	-2
646.816	6
646.85	10
646.883	11
646.917	16
646.95	1
646.984	-1
647.017	-1
647.051	2
647.084	-5
647.118	-9
647.151	-4
647.185	13
647.218	-4
647.252	-3
647.285	-6
647.319	-11
647.353	9
647.386	-3
647.42	19
647.453	4
647.487	4
647.52	-1
647.553	-4
647.587	4
647.62	-7
647.654	4
647.687	-4
647.721	21
647.754	-12
647.788	-5
647.821	-10
647.855	12
647.888	15
647.922	10
647.955	-5
647.989	7
648.022	2
648.055	2
648.089	-6
648.122	16
648.156	-2
648.189	5
648.223	3
648.256	23
648.29	-4
648.323	12
648.356	13
648.39	5
648.423	23
648.457	6
648.49	15
648.523	9
648.557	-3
648.59	4
648.624	7
648.657	16
648.69	12
648.724	-1
648.757	25
648.791	10
648.824	8
648.857	14
648.891	-4
648.924	-20
648.957	5
648.991	-5
649.024	5
649.057	-1
649.091	7
649.124	-6
649.158	1
649.191	18
649.224	0
649.258	20
649.291	2
649.324	5
649.358	3
649.391	13
649.424	-6
649.458	3
649.491	-5
649.524	-9
649.557	-15
649.591	-14
649.624	10
649.657	-15
649.691	-8
649.724	-12
649.757	-11
649.791	10
649.824	27
649.857	21
649.89	9
649.924	1
649.957	-3
649.99	-17
650.023	-9
650.057	-3
650.09	-6
650.123	1
650.157	13
650.19	30
650.223	-5
650.256	-2
650.29	5
650.323	7
650.356	3
650.389	-14
650.423	-18
650.456	3
650.489	4
650.522	10
650.555	21
650.589	4
650.622	13
650.655	-1
650.688	11
650.721	-2
650.755	11
650.788	-9
650.821	-7
650.854	-3
650.887	-6
650.921	5
650.954	-6
650.987	5
651.02	4
651.053	0
651.087	-5
651.12	26
651.153	11
651.186	13
651.219	-13
651.252	11
651.286	4
651.319	-13
651.352	-8
651.385	6
651.418	13
651.451	15
651.484	-3
651.518	-16
651.551	21
651.584	-6
651.617	21
651.65	6
651.683	11
651.716	5
651.749	0
651.783	9
651.816	9
651.849	9
651.882	4
651.915	-14
651.948	20
651.981	8
652.014	1
652.047	-8
652.08	-2
652.114	-6
652.147	-15
652.18	10
652.213	29
652.246	-7
652.279	-9
652.312	27
652.345	6
652.378	5
652.411	15
652.444	2
652.477	6
652.51	8
652.543	-11
652.576	-7
652.609	1
652.642	17
652.675	20
652.709	5
652.742	12
652.775	-3
652.808	12
652.841	2
652.874	4
652.907	6
652.94	-2
652.973	-4
653.006	-14
653.039	-17
653.072	11
653.105	-10
653.138	-8
653.171	-4
653.204	0
653.237	1
653.27	-13
653.303	13
653.336	6
653.368	-13
653.401	-10
653.434	-15
653.467	1
653.5	-15
653.533	-14
653.566	1
653.599	9
653.632	0
653.665	21
653.698	-2
653.731	9
653.764	8
653.797	-8
653.83	21
653.863	0
653.896	1
653.929	-2
653.961	6
653.994	-15
654.027	-3
654.06	-15
654.093	2
654.126	-5
654.159	2
654.192	-5
654.225	-12
654.258	-4
654.29	-2
654.323	9
654.356	5
654.389	-2
654.422	2
654.455	-1
654.488	15
654.521	-6
654.553	-5
654.586	5
654.619	3
654.652	12
654.685	14
654.718	30
654.751	17
654.783	-3
654.816	15
654.849	3
654.882	4
654.915	4
654.948	11
654.98	-7
655.013	0
655.046	-8
655.079	-5
655.112	5
655.144	-23
655.177	12
655.21	12
655.243	30
655.276	5
655.308	-1
655.341	-11
655.374	11
655.407	-3
655.44	12
655.472	10
655.505	11
655.538	10
655.571	14
655.603	7
655.636	10
655.669	15
655.702	16
655.734	-12
655.767	22
655.8	25
655.833	13
655.865	23
655.898	18
655.931	20
655.964	49
655.996	37
656.029	68
656.062	62
656.095	69
656.127	59
656.16	106
656.193	112
656.225	184
656.258	291
656.291	508
656.324	1102
656.356	3389
656.389	7606
656.422	6087
656.454	2088
656.487	696
656.52	259
656.552	132
656.585	76
656.618	55
656.65	42
656.683	33
656.716	25
656.748	19
656.781	12
656.814	5
656.846	17
656.879	0
656.912	12
656.944	-18
656.977	-16
657.01	9
657.042	9
657.075	27
657.108	3
657.14	20
657.173	34
657.205	36
657.238	10
657.271	6
657.303	-4
657.336	-1
657.369	-6
657.401	8
657.434	9
657.466	12
657.499	-6
657.532	-15
657.564	11
657.597	6
657.629	-9
657.662	21
657.694	18
657.727	-9
657.76	8
657.792	3
657.825	0
657.857	-2
657.89	-4
657.922	32
657.955	4
657.987	1
658.02	17
658.053	8
658.085	11
658.118	17
658.15	33
658.183	27
658.215	6
658.248	3
658.28	4
658.313	9
658.345	20
658.378	-5
658.41	-5
658.443	17
658.475	15
658.508	-7
658.54	1
658.573	3
658.605	10
658.638	-2
658.67	4
658.703	-4
658.735	-22
658.768	-3
658.8	-22
658.833	14
658.865	-6
658.898	3
658.93	-6
658.963	2
658.995	-7
659.028	2
659.06	-4
659.092	12
659.125	-2
659.157	-2
659.19	12
659.222	4
659.255	-3
659.287	-12
659.32	-6
659.352	8
659.384	8
659.417	4
659.449	5
659.482	12
659.514	8
659.546	2
659.579	9
659.611	5
659.644	7
659.676	7
659.708	3
659.741	-10
659.773	-8
659.806	-6
659.838	5
659.87	-11
659.903	10
659.935	20
659.967	5
660	6
660.032	-19
660.065	9
660.097	2
660.129	0
660.162	-3
660.194	8
660.226	11
660.259	10
660.291	-8
660.323	3
660.356	5
660.388	2
660.42	-1
660.453	5
660.485	-3
660.517	3
660.55	31
660.582	-10
660.614	7
660.647	13
660.679	-8
660.711	12
660.743	-10
660.776	-6
660.808	-3
660.84	-6
660.873	-5
660.905	10
660.937	0
660.969	5
661.002	2
661.034	9
661.066	9
661.099	2
661.131	7
661.163	3
661.195	11
661.228	3
661.26	1
661.292	-11
661.324	4
661.357	26
661.389	3
661.421	12
661.453	-2
661.485	0
661.518	-3
661.55	-4
661.582	-6
661.614	5
661.647	4
661.679	-5
661.711	5
661.743	-17
661.775	2
661.808	31
661.84	-10
661.872	10
661.904	-1
661.936	2
661.969	-3
662.001	-3
662.033	18
662.065	-3
662.097	21
662.129	21
662.162	-8
662.194	4
662.226	7
662.258	11
662.29	3
662.322	-7
662.355	7
662.387	19
662.419	3
662.451	16
662.483	14
662.515	-7
662.547	3
662.58	-8
662.612	-6
662.644	-7
662.676	11
662.708	17
662.74	13
662.772	-6
662.804	4
662.836	10
662.869	0
662.901	-2
662.933	-11
662.965	15
662.997	12
663.029	-10
663.061	-5
663.093	2
663.125	1
663.157	15
663.189	-2
663.221	-1
663.254	-4
663.286	15
663.318	-6
663.35	-8
663.382	-2
663.414	6
663.446	13
663.478	-19
663.51	20
663.542	-7
663.574	1
663.606	-1
663.638	-26
663.67	-5
663.702	-2
663.734	6
663.766	13
663.798	-13
663.83	2
663.862	21
663.894	21
663.926	6
663.958	5
663.99	-2
664.022	-7
664.054	3
664.086	1
664.118	-5
664.15	-3
664.182	13
664.214	-8
664.246	4
664.278	19
664.31	29
664.342	9
664.374	18
664.406	3
664.438	0
664.47	5
664.502	11
664.534	6
664.566	-11
664.598	13
664.63	-2
664.662	5
664.693	1
664.725	-4
664.757	-1
664.789	1
664.821	19
664.853	5
664.885	11
664.917	-12
664.949	27
664.981	16
665.013	2
665.045	-10
665.076	0
665.108	2
665.14	3
665.172	4
665.204	-19
665.236	7
665.268	6
665.3	2
665.331	2
665.363	15
665.395	6
665.427	-14
665.459	4
665.491	-6
665.523	-1
665.555	2
665.586	9
665.618	9
665.65	-20
665.682	10
665.714	-13
665.746	-7
665.777	-2
665.809	-9
665.841	-4
665.873	10
665.905	6
665.937	12
665.968	-1
666	6
666.032	13
666.064	7
666.096	-2
666.127	5
666.159	13
666.191	10
666.223	-10
666.255	3
666.286	-4
666.318	1
666.35	2
666.382	-2
666.413	-4
666.445	1
666.477	-14
666.509	-4
666.54	11
666.572	-1
666.604	2
666.636	-7
666.667	16
666.699	24
666.731	4
666.763	-11
666.794	11
666.826	1
666.858	-15
666.89	4
666.921	5
666.953	6
666.985	18
667.017	9
667.048	12
667.08	-4
667.112	13
667.143	-7
667.175	7
667.207	0
667.238	-3
667.27	-1
667.302	3
667.334	11
667.365	4
667.397	-7
667.429	-11
667.46	5
667.492	2
667.524	9
667.555	-1
667.587	0
667.619	-15
667.65	-22
667.682	0
667.714	7
667.745	-11
667.777	-2
667.808	10
667.84	14
667.872	1
667.903	32
667.935	10
667.967	5
667.998	15
668.03	-5
668.061	5
668.093	-5
668.125	3
668.156	-2
668.188	-15
668.22	-2
668.251	20
668.283	23
668.314	16
668.346	9
668.377	-1
668.409	-8
668.441	-7
668.472	8
668.504	11
668.535	10
668.567	15
668.599	-2
668.63	3
668.662	-5
668.693	11
668.725	1
668.756	14
668.788	-1
668.819	1
668.851	12
668.882	-2
668.914	-4
668.946	3
668.977	-16
669.009	1
669.04	-6
669.072	12
669.103	5
669.135	-16
669.166	2
669.198	8
669.229	5
669.261	-2
669.292	8
669.324	-3
669.355	5
669.387	-12
669.418	9
669.45	10
669.481	3
669.513	9
669.544	4
669.576	-14
669.607	-6
669.639	4
669.67	0
669.701	15
669.733	-15
669.764	15
669.796	19
669.827	-12
669.859	0
669.89	9
669.922	4
669.953	14
669.985	17
670.016	17
670.047	2
670.079	-17
670.11	12
670.142	-4
670.173	3
670.204	7
670.236	4
670.267	8
670.299	-2
670.33	5
670.362	12
670.393	0
670.424	1
670.456	-7
670.487	4
670.518	0
670.55	16
670.581	13
670.613	4
670.644	-25
670.675	-11
670.707	-7
670.738	24
670.769	-2
670.801	-19
670.832	2
670.864	-16
670.895	10
670.926	1
670.958	-6
670.989	-11
671.02	-18
671.052	-6
671.083	9
671.114	6
671.146	15
671.177	10
671.208	-10
671.24	-11
671.271	6
671.302	2
671.333	-3
671.365	2
671.396	-8
671.427	9
671.459	12
671.49	-9
671.521	11
671.553	6
671.584	5
671.615	-4
671.646	15
671.678	6
671.709	-10
671.74	-7
671.771	0
671.803	8
671.834	9
671.865	-4
671.896	-3
671.928	6
671.959	-3
671.99	9
672.021	8
672.053	1
672.084	17
672.115	1
672.146	1
672.178	-8
672.209	-9
672.24	-12
672.271	10
672.303	7
672.334	4
672.365	-8
672.396	-14
672.427	8
672.459	17
672.49	26
672.521	7
672.552	10
672.583	8
672.615	2
672.646	10
672.677	4
672.708	10
672.739	-4
672.77	10
672.802	10
672.833	-4
672.864	-8
672.895	-13
672.926	0
672.957	-20
672.989	1
673.02	8
673.051	3
673.082	21
673.113	1
673.144	-4
673.175	-7
673.206	-14
673.238	-10
673.269	-2
673.3	-2
673.331	3
673.362	-9
673.393	0
673.424	-1
673.455	11
673.487	15
673.518	24
673.549	-1
673.58	-13
673.611	6
673.642	3
673.673	-12
673.704	4
673.735	4
673.766	-13
673.797	3
673.828	-7
673.86	-11
673.891	-4
673.922	-7
673.953	-12
673.984	10
674.015	7
674.046	16
674.077	1
674.108	-1
674.139	-4
674.17	-2
674.201	-19
674.232	-16
674.263	-13
674.294	4
674.325	-13
674.356	7
674.387	14
674.418	7
674.449	-7
674.48	-1
674.511	4
674.542	-4
674.573	-24
674.604	12
674.635	17
674.666	19
674.697	3
674.728	6
674.759	3
674.79	0
674.821	-13
674.852	-11
674.883	10
674.914	-6
674.945	7
674.976	1
675.007	-2
675.038	-3
675.069	-19
675.1	-4
675.131	13
675.162	-4
675.193	-10
675.224	-15
675.254	11
675.285	-5
675.316	23
675.347	-1
675.378	0
675.409	-2
675.44	6
675.471	14
675.502	-8
675.533	5
675.564	4
675.595	0
675.625	24
675.656	14
675.687	2
675.718	-22
675.749	9
675.78	9
675.811	-6
675.842	1
675.873	13
675.903	2
675.934	1
675.965	-10
675.996	-18
676.027	-7
676.058	9
676.089	-3
676.119	-6
676.15	4
676.181	-3
676.212	-5
676.243	18
676.274	-1
676.304	14
676.335	-17
676.366	10
676.397	4
676.428	24
676.459	30
676.489	10
676.52	4
676.551	4
676.582	-3
676.613	12
676.643	-15
676.674	25
676.705	0
676.736	10
676.767	22
676.797	24
676.828	-15
676.859	1
676.89	16
676.92	1
676.951	25
676.982	15
677.013	0
677.044	14
677.074	19
677.105	5
677.136	12
677.167	-11
677.197	5
677.228	-5
677.259	-23
677.289	-4
677.32	-18
677.351	-4
677.382	-9
677.412	4
677.443	9
677.474	11
677.505	0
677.535	4
677.566	-4
677.597	-7
677.627	4
677.658	-11
677.689	6
677.72	-16
677.75	-7
677.781	4
677.812	3
677.842	15
677.873	-1
677.904	5
677.934	-7
677.965	17
677.996	-13
678.026	1
678.057	9
678.088	-26
678.118	-13
678.149	-7
678.18	1
678.21	0
678.241	3
678.272	8
678.302	8
678.333	13
678.363	5
678.394	15
678.425	1
678.455	-4
678.486	8
678.517	-6
678.547	-5
678.578	6
678.608	1
678.639	-4
678.67	1
678.7	-10
678.731	-10
678.761	1
678.792	7
678.823	10
678.853	13
678.884	-8
678.914	16
678.945	15
678.975	-13
679.006	1
679.037	-21
679.067	16
679.098	-3
679.128	-12
679.159	2
679.189	6
679.22	-7
679.25	-3
679.281	0
679.312	2
679.342	4
679.373	23
679.403	4
679.434	-1
679.464	-15
679.495	-5
679.525	1
679.556	13
679.586	6
679.617	3
679.647	-4
679.678	12
679.708	1
679.739	-13
679.769	-10
679.8	0
679.83	-5
679.861	6
679.891	1
679.922	3
679.952	-2
679.983	2
680.013	14
680.044	-3
680.074	-2
680.105	8
680.135	-11
680.165	8
680.196	23
680.226	3
680.257	-8
680.287	6
680.318	11
680.348	7
680.379	12
680.409	19
680.439	-1
680.47	-2
680.5	-14
680.531	-14
680.561	8
680.592	9
680.622	8
680.652	1
680.683	21
680.713	3
680.744	-3
680.774	-6
680.804	27
680.835	-4
680.865	-7
680.896	19
680.926	25
680.956	10
680.987	5
681.017	-2
681.047	1
681.078	-8
681.108	5
681.139	-6
681.169	3
681.199	-5
681.23	-6
681.26	-6
681.29	2
681.321	-10
681.351	1
681.381	-11
681.412	2
681.442	10
681.472	11
681.503	16
681.533	12
681.563	1
681.594	-14
681.624	1
681.654	-15
681.685	-12
681.715	3
681.745	2
681.775	-8
681.806	-2
681.836	-2
681.866	-5
681.897	3
681.927	-4
681.957	-14
681.987	-4
682.018	-13
682.048	-7
682.078	-4
682.109	28
682.139	-4
682.169	5
682.199	11
682.23	1
682.26	-4
682.29	6
682.32	-6
682.351	1
682.381	-10
682.411	0
682.441	-4
682.472	-5
682.502	2
682.532	0
682.562	-9
682.592	8
682.623	21
682.653	16
682.683	-4
682.713	15
682.743	-5
682.774	-8
682.804	3
682.834	12
682.864	-4
682.894	4
682.925	2
682.955	-5
682.985	4
683.015	-2
683.045	17
683.076	-21
683.106	-21
683.136	-8
683.166	-7
683.196	4
683.226	-15
683.257	-8
683.287	-8
683.317	1
683.347	1
683.377	7
683.407	8
683.437	5
683.468	17
683.498	4
683.528	-12
683.558	3
683.588	-25
683.618	-24
683.648	-19
683.678	5
683.708	-10
683.739	6
683.769	9
683.799	23
683.829	-4
683.859	0
683.889	21
683.919	4
683.949	-1
683.979	-7
684.009	1
684.039	14
684.07	1
684.1	13
684.13	11
684.16	-4
684.19	-17
684.22	-7
684.25	25
684.28	-8
684.31	16
684.34	10
684.37	3
684.4	-5
684.43	2
684.46	-3
684.49	1
684.52	1
684.55	9
684.58	-2
684.61	15
684.64	8
684.67	6
684.7	-8
684.73	4
684.76	-11
684.79	21
684.82	4
684.85	1
684.88	4
684.91	1
684.94	5
684.97	-3
685	-5
685.03	-15
685.06	-23
685.09	0
685.12	25
685.15	-1
685.18	1
685.21	6
685.24	20
685.27	7
685.3	-4
685.33	10
685.36	-5
685.39	1
685.42	-11
685.45	0
685.48	1
685.51	12
685.54	15
685.569	3
685.599	0
685.629	-4
685.659	-10
685.689	-3
685.719	-6
685.749	4
685.779	3
685.809	9
685.839	4
685.869	-19
685.898	6
685.928	-2
685.958	-4
685.988	15
686.018	3
686.048	16
686.078	13
686.108	24
686.137	7
686.167	23
686.197	-15
686.227	12
686.257	26
686.287	17
686.317	-3
686.346	3
686.376	1
686.406	1
686.436	17
686.466	13
686.496	18
686.525	11
686.555	2
686.585	17
686.615	27
686.645	2
686.675	5
686.704	-3
686.734	22
686.764	0
686.794	-2
686.824	-8
686.853	-6
686.883	4
686.913	18
686.943	7
686.973	-2
687.002	1
687.032	11
687.062	-10
687.092	16
687.121	-6
687.151	14
687.181	24
687.211	21
687.24	9
687.27	-13
687.3	12
687.33	-10
687.359	-10
687.389	-2
687.419	-6
687.449	6
687.478	11
687.508	0
687.538	9
687.568	18
687.597	-2
687.627	25
687.657	5
687.686	14
687.716	10
687.746	-12
687.776	1
687.805	4
687.835	2
687.865	5
687.894	6
687.924	-11
687.954	-6
687.983	-4
688.013	4
688.043	-2
688.072	-4
688.102	0
688.132	-5
688.161	6
688.191	-12
688.221	7
688.25	-8
688.28	0
688.31	4
688.339	5
688.369	1
688.399	-10
688.428	-12
688.458	4
688.488	-1
688.517	11
688.547	7
688.576	25
688.606	14
688.636	-13
688.665	-9
688.695	0
688.725	2
688.754	18
688.784	2
688.813	25
688.843	9
688.873	2
688.902	5
688.932	3
688.961	-2
688.991	10
689.02	18
689.05	-10
689.08	1
689.109	11
689.139	3
689.168	-6
689.198	7
689.227	6
689.257	16
689.287	5
689.316	8
689.346	-4
689.375	-12
689.405	16
689.434	5
689.464	7
689.493	5
689.523	-8
689.552	-11
689.582	5
689.611	-1
689.641	-4
689.67	5
689.7	7
689.73	10
689.759	13
689.789	17
689.818	-6
689.848	-2
689.877	12
689.906	1
689.936	-14
689.965	2
689.995	-1
690.024	6
690.054	13
690.083	13
690.113	8
690.142	-8
690.172	2
690.201	1
690.231	3
690.26	-6
690.29	6
690.319	13
690.348	-13
690.378	5
690.407	15
690.437	-4
690.466	2
690.496	-14
690.525	11
690.555	9
690.584	10
690.613	-7
690.643	-4
690.672	20
690.702	-2
690.731	-6
690.76	-6
690.79	-12
690.819	-19
690.849	-12
690.878	0
690.907	10
690.937	20
690.966	17
690.996	13
691.025	-1
691.054	2
691.084	14
691.113	11
691.142	12
691.172	9
691.201	6
691.23	17
691.26	26
691.289	-6
691.319	-14
691.348	7
691.377	16
691.407	3
691.436	12
691.465	6
691.495	12
691.524	4
691.553	0
691.583	-2
691.612	25
691.641	-6
691.67	3
691.7	6
691.729	-3
691.758	-7
691.788	6
691.817	9
691.846	0
691.876	-6
691.905	10
691.934	-13
691.963	17
691.993	-1
692.022	-7
692.051	-10
692.081	0
692.11	2
692.139	14
692.168	5
692.198	29
692.227	15
692.256	-2
692.285	3
692.315	15
692.344	8
692.373	-5
692.402	-2
692.432	0
692.461	5
692.49	18
692.519	5
692.548	8
692.578	4
692.607	-14
692.636	-18
692.665	-4
692.694	-1
692.724	14
692.753	20
692.782	4
692.811	0
692.84	5
692.87	6
692.899	7
692.928	8
692.957	4
692.986	12
693.016	12
693.045	6
693.074	10
693.103	-1
693.132	10
693.161	11
693.191	1
693.22	-1
693.249	2
693.278	9
693.307	24
693.336	4
693.365	-2
693.395	0
693.424	-10
693.453	17
693.482	0
693.511	-5
693.54	2
693.569	7
693.598	10
693.628	13
693.657	14
693.686	30
693.715	-7
693.744	7
693.773	9
693.802	6
693.831	12
693.86	16
693.889	-2
693.919	18
693.948	18
693.977	1
694.006	-5
694.035	-12
694.064	2
694.093	-2
694.122	0
694.151	2
694.18	13
694.209	19
694.238	13
694.267	26
694.296	5
694.325	19
694.354	11
694.383	5
694.412	-12
694.441	-15
694.471	0
694.5	13
694.529	11
694.558	13
694.587	15
694.616	-8
694.645	12
694.674	43
694.703	14
694.732	11
694.761	14
694.79	19
694.819	-3
694.848	12
694.877	32
694.906	27
694.935	0
694.963	14
694.992	-9
695.021	9
695.05	13
695.079	8
695.108	8
695.137	25
695.166	12
695.195	4
695.224	20
695.253	7
695.282	-5
695.311	-4
695.34	-2
695.369	15
695.398	5
695.427	13
695.456	11
695.485	6
695.513	11
695.542	10
695.571	6
695.6	8
695.629	-9
695.658	11
695.687	-3
695.716	0
695.745	20
695.774	-10
695.802	-1
695.831	13
695.86	1
695.889	27
695.918	6
695.947	-1
695.976	12
696.005	6
696.033	8
696.062	8
696.091	-10
696.12	3
696.149	23
696.178	0
696.207	6
696.235	-5
696.264	5
696.293	8
696.322	8
696.351	15
696.38	2
696.408	-6
696.437	-5
696.466	7
696.495	33
696.524	14
696.553	1
696.581	11
696.61	12
696.639	10
696.668	6
696.697	-3
696.725	3
696.754	2
696.783	-4
696.812	-9
696.84	22
696.869	18
696.898	-2
696.927	-6
696.956	27
696.984	5
697.013	3
697.042	-3
697.071	22
697.099	18
697.128	12
697.157	8
697.186	1
697.214	18
697.243	5
697.272	-4
697.301	8
697.329	8
697.358	-4
697.387	24
697.415	9
697.444	18
697.473	-15
697.502	-8
697.53	5
697.559	-11
697.588	10
697.616	-3
697.645	-3
697.674	15
697.703	2
697.731	6
697.76	4
697.789	-4
697.817	-3
697.846	14
697.875	13
697.903	18
697.932	14
697.961	7
697.989	12
698.018	18
698.047	5
698.075	15
698.104	3
698.133	10
698.161	3
698.19	2
698.218	-3
698.247	12
698.276	-7
698.304	15
698.333	5
698.362	-5
698.39	6
698.419	10
698.447	-2
698.476	-3
698.505	2
698.533	17
698.562	-3
698.591	-3
698.619	-4
698.648	-2
698.676	11
698.705	7
698.733	-4
698.762	6
698.791	6
698.819	-2
698.848	-5
698.876	15
698.905	6
698.933	1
698.962	2
698.991	17
699.019	20
699.048	14
699.076	7
699.105	2
699.133	-9
699.162	17
699.19	13
699.219	7
699.248	1
699.276	-8
699.305	-13
699.333	16
699.362	-7
699.39	12
699.419	0
699.447	10
699.476	12
699.504	-3
699.533	19
699.561	14
699.59	-5
699.618	14
699.647	-2
699.675	6
699.704	20
699.732	5
699.761	6
699.789	-1
699.818	6
699.846	9
699.874	9
699.903	5
699.931	-10
699.96	11
699.988	9
700.017	-8
700.045	1
700.074	8
700.102	12
700.13	-12
700.159	6
700.187	1
700.216	18
700.244	-1
700.273	18
700.301	17
700.329	-2
700.358	22
700.386	0
700.415	7
700.443	-1
700.472	3
700.5	12
700.528	3
700.557	3
700.585	-3
700.614	-10
700.642	21
700.67	28
700.699	15
700.727	4
700.755	1
700.784	-5
700.812	7
700.841	10
700.869	12
700.897	-12
700.926	4
700.954	6
700.982	13
701.011	10
701.039	17
701.067	16
701.096	4
701.124	-16
701.152	2
701.181	16
701.209	-5
701.237	10
701.266	7
701.294	-1
701.322	12
701.351	-6
701.379	3
701.407	14
701.435	16
701.464	16
701.492	25
701.52	-10
701.549	8
701.577	4
701.605	-1
701.634	-4
701.662	16
701.69	-7
701.718	-3
701.747	13
701.775	-10
701.803	-6
701.831	1
701.86	-3
701.888	4
701.916	2
701.944	18
701.973	-20
702.001	-24
702.029	-3
702.057	-2
702.086	-4
702.114	-10
702.142	0
702.17	-7
702.199	-5
702.227	6
702.255	4
702.283	-5
702.311	-2
702.34	2
702.368	-7
702.396	6
702.424	-14
702.452	4
702.481	10
702.509	5
702.537	-15
702.565	20
702.593	-13
702.621	2
702.65	6
702.678	8
702.706	20
702.734	11
702.762	1
702.79	-14
702.819	3
702.847	-2
702.875	3
702.903	8
702.931	2
702.959	2
702.988	10
703.016	-12
703.044	-10
703.072	-5
703.1	-12
703.128	8
703.156	5
703.184	7
703.212	14
703.241	9
703.269	2
703.297	0
703.325	0
703.353	-3
703.381	2
703.409	15
703.437	-4
703.465	-9
703.493	-3
703.522	10
703.55	8
703.578	4
703.606	0
703.634	-3
703.662	-8
703.69	-16
703.718	6
703.746	11
703.774	7
703.802	23
703.83	3
703.858	17
703.886	-5
703.914	-6
703.942	12
703.97	-18
703.998	-16
704.027	20
704.055	-1
704.083	-4
704.111	-26
704.139	-9
704.167	-4
704.195	2
704.223	2
704.251	4
704.279	2
704.307	-4
704.335	2
704.363	6
704.391	-18
704.419	-10
704.447	2
704.475	-8
704.503	-6
704.531	19
704.558	5
704.586	13
704.614	-2
704.642	-5
704.67	-27
704.698	-2
704.726	0
704.754	-15
704.782	-11
704.81	-5
704.838	13
704.866	6
704.894	-3
704.922	-16
704.95	12
704.978	14
705.006	1
705.034	9
705.061	-3
705.089	7
705.117	-4
705.145	3
705.173	-3
705.201	11
705.229	27
705.257	-10
705.285	13
705.313	3
705.34	5
705.368	4
705.396	1
705.424	0
705.452	-10
705.48	4
705.508	-4
705.536	-2
705.563	-6
705.591	0
705.619	0
705.647	-1
705.675	-4
705.703	13
705.731	4
705.758	-1
705.786	11
705.814	17
705.842	9
705.87	21
705.898	8
705.925	-6
705.953	-6
705.981	-6
706.009	5
706.037	5
706.065	-6
706.092	-6
706.12	6
706.148	1
706.176	1
706.204	25
706.231	9
706.259	-5
706.287	-10
706.315	-6
706.342	-14
706.37	9
706.398	3
706.426	-4
706.454	-2
706.481	9
706.509	0
706.537	6
706.565	-16
706.592	5
706.62	4
706.648	13
706.676	-4
706.703	1
706.731	-4
706.759	-10
706.787	18
706.814	12
706.842	1
706.87	-4
706.897	3
706.925	9
706.953	1
706.981	4
707.008	13
707.036	22
707.064	-12
707.091	3
707.119	6
707.147	-12
707.174	0
707.202	-3
707.23	-9
707.258	5
707.285	-16
707.313	-8
707.341	11
707.368	0
707.396	-6
707.424	17
707.451	8
707.479	-8
707.507	2
707.534	6
707.562	16
707.59	-15
707.617	0
707.645	8
707.672	-1
707.7	4
707.728	11
707.755	4
707.783	11
707.811	-12
707.838	-6
707.866	4
707.893	5
707.921	-4
707.949	-3
707.976	13
708.004	10
708.031	-2
708.059	-7
708.087	-7
708.114	-1
708.142	8
708.169	-3
708.197	-6
708.225	3
708.252	-4
708.28	13
708.307	-12
708.335	10
708.362	0
708.39	-5
708.418	-7
708.445	-3
708.473	-4
708.5	-12
708.528	4
708.555	4
708.583	-4
708.61	-6
708.638	11
708.665	-29
708.693	-8
708.72	3
708.748	-7
708.776	-16
708.803	7
708.831	6
708.858	-2
708.886	8
708.913	18
708.941	-9
708.968	3
708.996	7
709.023	29
709.051	-3
709.078	-6
709.105	4
709.133	-3
709.16	5
709.188	-6
709.215	6
709.243	-10
709.27	-14
709.298	-4
709.325	-9
709.353	-1
709.38	-2
709.408	3
709.435	-6
709.462	5
709.49	10
709.517	-2
709.545	5
709.572	-12
709.6	-11
709.627	-2
709.655	-11
709.682	-7
709.709	-5
709.737	5
709.764	4
709.792	13
709.819	-5
709.846	-8
709.874	11
709.901	13
709.929	20
709.956	-3
709.983	-10
710.011	-6
710.038	-9
710.066	5
710.093	5
710.12	17
710.148	5
710.175	4
710.202	-17
710.23	-11
710.257	-1
710.284	16
710.312	12
710.339	7
710.366	10
710.394	-6
710.421	10
710.448	9
710.476	1
710.503	-6
710.53	8
710.558	6
710.585	0
710.612	-6
710.64	10
710.667	17
710.694	-4
710.722	-2
710.749	9
710.776	11
710.804	28
710.831	4
710.858	6
710.885	-3
710.913	-14
710.94	21
710.967	-7
710.995	-6
711.022	-4
711.049	-14
711.076	-15
711.104	3
711.131	-16
711.158	-7
711.185	10
711.213	-7
711.24	-8
711.267	-15
711.294	3
711.322	13
711.349	-18
711.376	-14
711.403	-8
711.431	-10
711.458	-16
711.485	0
711.512	-5
711.54	13
711.567	15
711.594	1
711.621	-8
711.648	2
711.676	-4
711.703	-7
711.73	-24
711.757	-13
711.784	-6
711.812	0
711.839	-5
711.866	-25
711.893	-16
711.92	-7
711.947	-12
711.975	4
712.002	6
712.029	3
712.056	1
712.083	14
712.11	-7
712.138	-4
712.165	1
712.192	10
712.219	1
712.246	-11
712.273	-7
712.3	-7
712.328	-2
712.355	5
712.382	-7
712.409	6
712.436	-7
712.463	8
712.49	4
712.517	1
712.544	-2
712.572	-6
712.599	-16
712.626	-19
712.653	-11
712.68	-15
712.707	-15
712.734	2
712.761	-3
712.788	2
712.815	7
712.842	9
712.87	-3
712.897	-1
712.924	-17
712.951	6
712.978	2
713.005	16
713.032	14
713.059	-5
713.086	-14
713.113	2
713.14	-13
713.167	-13
713.194	5
713.221	5
713.248	2
713.275	-2
713.302	-7
713.329	8
713.356	16
713.383	0
713.41	5
713.437	-6
713.464	6
713.491	2
713.518	3
713.545	-26
713.572	-6
713.599	4
713.626	0
713.653	9
713.68	-3
713.707	20
713.734	2
713.761	-9
713.788	-13
713.815	2
713.842	-4
713.869	0
713.896	-8
713.923	-10
713.95	-6
713.977	0
714.004	3
714.031	1
714.058	5
714.085	18
714.112	17
714.139	7
714.165	0
714.192	-7
714.219	5
714.246	10
714.273	-3
714.3	3
714.327	9
714.354	12
714.381	-7
714.408	-6
714.435	17
714.461	-3
714.488	7
714.515	-2
714.542	-8
714.569	-6
714.596	-9
714.623	5
714.65	-3
714.677	-2
714.703	10
714.73	9
714.757	14
714.784	9
714.811	-10
714.838	-6
714.865	0
714.891	4
714.918	9
714.945	-1
714.972	8
714.999	13
715.026	-22
715.052	6
715.079	-5
715.106	14
715.133	4
715.16	0
715.187	6
715.213	4
715.24	-9
715.267	-20
715.294	-14
715.321	-4
715.347	-3
715.374	-4
715.401	0
715.428	-11
715.455	-10
715.481	-3
715.508	-2
715.535	-15
715.562	22
715.588	0
715.615	5
715.642	-18
715.669	8
715.695	-8
715.722	-3
715.749	5
715.776	15
715.802	-4
715.829	4
715.856	-8
715.883	8
715.909	2
715.936	12
715.963	18
715.99	-3
716.016	-2
716.043	2
716.07	-4
716.096	-16
716.123	1
716.15	-2
716.177	8
716.203	1
716.23	-6
716.257	3
716.283	3
716.31	10
716.337	5
716.363	-10
716.39	-7
716.417	12
716.443	7
716.47	20
716.497	19
716.523	11
716.55	13
716.577	16
716.603	7
716.63	8
716.657	12
716.683	-9
716.71	5
716.737	2
716.763	10
716.79	3
716.817	9
716.843	3
716.87	10
716.897	-1
716.923	22
716.95	2
716.976	-13
717.003	-11
717.03	1
717.056	11
717.083	6
717.109	15
717.136	10
717.163	4
717.189	1
717.216	3
717.242	-15
717.269	6
717.296	11
717.322	21
717.349	10
717.375	12
717.402	-10
717.428	0
717.455	11
717.481	5
717.508	8
717.535	4
717.561	7
717.588	-12
717.614	10
717.641	20
717.667	2
717.694	9
717.72	-10
717.747	0
717.773	-15
717.8	-6
717.826	-10
717.853	0
717.88	10
717.906	18
717.933	-6
717.959	-3
717.986	-5
718.012	-5
718.039	5
718.065	3
718.092	17
718.118	7
718.144	-2
718.171	0
718.197	13
718.224	-5
718.25	4
718.277	5
718.303	0
718.33	0
718.356	-11
718.383	-14
718.409	13
718.436	-2
718.462	-2
718.489	-8
718.515	8
718.541	-3
718.568	3
718.594	4
718.621	17
718.647	2
718.674	5
718.7	-2
718.726	-8
718.753	4
718.779	8
718.806	1
718.832	-3
718.858	-3
718.885	-9
718.911	-10
718.938	0
718.964	-24
718.99	7
719.017	-6
719.043	4
719.07	26
719.096	4
719.122	25
719.149	9
719.175	8
719.201	2
719.228	-8
719.254	6
719.281	-3
719.307	-3
719.333	19
719.36	13
719.386	5
719.412	-3
719.439	-5
719.465	4
719.491	14
719.518	5
719.544	11
719.57	11
719.597	14
719.623	-7
719.649	0
719.675	17
719.702	6
719.728	20
719.754	0
719.781	6
719.807	-1
719.833	-4
719.86	3
719.886	2
719.912	-3
719.938	6
719.965	14
719.991	6
720.017	-3
720.044	-9
720.07	-2
720.096	20
720.122	-10
720.149	-3
720.175	38
720.201	12
720.227	0
720.254	-9
720.28	2
720.306	1
720.332	5
720.359	9
720.385	12
720.411	14
720.437	13
720.463	5
720.49	13
720.516	-6
720.542	-3
720.568	8
720.595	20
720.621	-6
720.647	20
720.673	5
720.699	-3
720.725	10
720.752	36
720.778	17
720.804	19
720.83	19
720.856	1
720.883	-7
720.909	0
720.935	10
720.961	21
720.987	-1
721.013	11
721.04	4
721.066	10
721.092	11
721.118	13
721.144	2
721.17	16
721.196	3
721.223	-3
721.249	-10
721.275	3
721.301	1
721.327	8
721.353	3
721.379	10
721.405	5
721.432	11
721.458	1
721.484	0
721.51	-15
721.536	7
721.562	9
721.588	-1
721.614	10
721.64	11
721.666	2
721.693	1
721.719	2
721.745	-4
721.771	-6
721.797	0
721.823	6
721.849	14
721.875	8
721.901	12
721.927	1
721.953	9
721.979	10
722.005	15
722.031	4
722.057	1
722.083	-1
722.109	9
722.135	16
722.161	-5
722.187	2
722.214	-2
722.24	0
722.266	-12
722.292	16
722.318	17
722.344	-1
722.37	9
722.396	18
722.422	12
722.448	5
722.474	0
722.5	1
722.526	-1
722.552	11
722.578	6
722.603	4
722.629	-7
722.655	12
722.681	-10
722.707	-1
722.733	-2
722.759	0
722.785	-1
722.811	-14
722.837	3
722.863	16
722.889	13
722.915	1
722.941	-5
722.967	-6
722.993	14
723.019	2
723.045	14
723.071	7
723.097	0
723.122	12
723.148	-2
723.174	-8
723.2	13
723.226	2
723.252	-2
723.278	-10
723.304	-4
723.33	2
723.356	-15
723.381	-7
723.407	-18
723.433	0
723.459	-6
723.485	2
723.511	3
723.537	-7
723.563	4
723.588	-4
723.614	-1
723.64	26
723.666	4
723.692	9
723.718	2
723.744	-4
723.769	-9
723.795	6
723.821	17
723.847	-4
723.873	10
723.899	8
723.924	-1
723.95	-10
723.976	-15
724.002	10
724.028	2
724.053	-4
724.079	0
724.105	0
724.131	-12
724.157	2
724.182	9
724.208	5
724.234	2
724.26	-9
724.286	9
724.311	2
724.337	4
724.363	9
724.389	6
724.415	-2
724.44	20
724.466	6
724.492	-7
724.518	16
724.543	9
724.569	-5
724.595	4
724.621	1
724.646	-5
724.672	-7
724.698	-2
724.723	-10
724.749	7
724.775	11
724.801	1
724.826	2
724.852	13
724.878	-2
724.904	-15
724.929	8
724.955	-7
724.981	5
725.006	6
725.032	6
725.058	19
725.083	-10
725.109	-8
725.135	-6
725.161	-7
725.186	0
725.212	-3
725.238	12
725.263	0
725.289	-19
725.315	-3
725.34	1
725.366	2
725.392	-3
725.417	-4
725.443	16
725.468	15
725.494	-8
725.52	10
725.545	0
725.571	2
725.597	13
725.622	16
725.648	8
725.674	7
725.699	4
725.725	3
725.75	15
725.776	-8
725.802	-6
725.827	-4
725.853	-4
725.878	-6
725.904	-1
725.93	-4
725.955	-15
725.981	-6
726.006	8
726.032	8
726.057	-7
726.083	7
726.109	0
726.134	1
726.16	-8
726.185	4
726.211	-13
726.236	12
726.262	5
726.288	8
726.313	9
726.339	11
726.364	2
726.39	6
726.415	-6
726.441	0
726.466	1
726.492	3
726.517	5
726.543	6
726.568	-5
726.594	2
726.619	7
726.645	5
726.67	5
726.696	2
726.721	-14
726.747	-19
726.772	4
726.798	8
726.823	0
726.849	-5
726.874	12
726.9	23
726.925	17
726.951	13
726.976	13
727.002	0
727.027	12
727.053	11
727.078	-14
727.104	-6
727.129	-16
727.155	11
727.18	10
727.205	5
727.231	-4
727.256	4
727.282	-16
727.307	-3
727.333	-9
727.358	-6
727.383	-22
727.409	7
727.434	13
727.46	-2
727.485	-4
727.511	2
727.536	-10
727.561	-4
727.587	-3
727.612	6
727.637	1
727.663	8
727.688	9
727.714	-12
727.739	4
727.764	-2
727.79	10
727.815	10
727.841	-6
727.866	3
727.891	0
727.917	-13
727.942	0
727.967	14
727.993	-4
728.018	-10
728.043	-4
728.069	0
728.094	6
728.119	-1
728.145	10
728.17	-3
728.195	-5
728.221	17
728.246	4
728.271	-8
728.297	13
728.322	11
728.347	12
728.373	19
728.398	5
728.423	-10
728.448	-5
728.474	12
728.499	11
728.524	1
728.55	-4
728.575	-2
728.6	-6
728.625	-5
728.651	-4
728.676	-14
728.701	-16
728.727	3
728.752	2
728.777	-14
728.802	-5
728.828	5
728.853	5
728.878	-8
728.903	-4
728.929	-10
728.954	0
728.979	-4
729.004	2
729.03	-6
729.055	4
729.08	0
729.105	-4
729.13	28
729.156	10
729.181	8
729.206	-16
729.231	-12
729.256	-3
729.282	4
729.307	-16
729.332	-7
729.357	2
729.382	-4
729.408	-11
729.433	-7
729.458	10
729.483	18
729.508	6
729.533	7
729.559	8
729.584	-6
729.609	1
729.634	-5
729.659	5
729.684	0
729.71	15
729.735	5
729.76	-7
729.785	-12
729.81	4
729.835	-4
729.86	-1
729.886	12
729.911	6
729.936	-10
729.961	2
729.986	-7
730.011	23
730.036	13
730.061	5
730.086	17
730.112	12
730.137	0
730.162	-2
730.187	-15
730.212	0
730.237	3
730.262	8
730.287	7
730.312	21
730.337	-5
730.362	26
730.387	2
730.413	-9
730.438	-2
730.463	-4
730.488	-6
730.513	6
730.538	-3
730.563	26
730.588	-1
730.613	15
730.638	2
730.663	0
730.688	11
730.713	2
730.738	-2
730.763	0
730.788	-18
730.813	-3
730.838	4
730.863	6
730.888	4
730.913	-20
730.938	-19
730.963	12
730.988	1
731.013	11
731.038	-1
731.063	-12
731.088	9
731.113	-3
731.138	3
731.163	-5
731.188	-14
731.213	4
731.238	17
731.263	-6
731.288	-4
731.313	-11
731.338	3
731.363	6
731.388	9
731.413	-10
731.438	-4
731.463	17
731.487	1
731.512	-4
731.537	-11
731.562	0
731.587	8
731.612	-9
731.637	-3
731.662	0
731.687	-9
731.712	-19
731.737	-3
731.762	5
731.786	3
731.811	11
731.836	0
731.861	-9
731.886	-3
731.911	12
731.936	15
731.961	-1
731.986	0
732.01	10
732.035	-12
732.06	10
732.085	11
732.11	1
732.135	-24
732.16	0
732.184	3
732.209	8
732.234	5
732.259	2
732.284	16
732.309	3
732.334	4
732.358	-17
732.383	-9
732.408	-11
732.433	-5
732.458	-3
732.482	-5
732.507	5
732.532	5
732.557	8
732.582	13
732.607	3
732.631	-2
732.656	-8
732.681	5
732.706	10
732.73	2
732.755	-7
732.78	-5
732.805	13
732.83	-10
732.854	8
732.879	15
732.904	-12
732.929	-9
732.953	6
732.978	-6
733.003	-5
733.028	13
733.052	9
733.077	7
733.102	3
733.127	-3
733.151	-2
733.176	-10
733.201	-12
733.226	2
733.25	-9
733.275	-3
733.3	-3
733.324	12
733.349	7
733.374	17
733.399	-3
733.423	-10
733.448	5
733.473	2
733.497	-3
733.522	-5
733.547	16
733.571	20
733.596	-6
733.621	8
733.646	-4
733.67	-3
733.695	2
733.72	13
733.744	15
733.769	-2
733.794	16
733.818	9
733.843	-3
733.867	-11
733.892	-2
733.917	-1
733.941	3
733.966	-7
733.991	1
734.015	9
734.04	0
734.065	20
734.089	24
734.114	-1
734.138	9
734.163	10
734.188	12
734.212	12
734.237	9
734.261	-6
734.286	-7
734.311	-12
734.335	0
734.36	-2
734.384	-5
734.409	0
734.434	-6
734.458	4
734.483	0
734.507	-3
734.532	1
734.556	10
734.581	5
734.606	3
734.63	5
734.655	-1
734.679	-1
734.704	12
734.728	4
734.753	6
734.777	9
734.802	6
734.826	4
734.851	15
734.876	20
734.9	5
734.925	20
734.949	16
734.974	10
734.998	20
735.023	-26
735.047	-7
735.072	4
735.096	5
735.121	3
735.145	-5
735.17	-2
735.194	10
735.219	21
735.243	9
735.268	14
735.292	6
735.317	10
735.341	6
735.365	-8
735.39	11
735.414	19
735.439	12
735.463	0
735.488	0
735.512	0
735.537	-2
735.561	6
735.586	5
735.61	8
735.634	-9
735.659	0
735.683	13
735.708	-1
735.732	-7
735.757	-2
735.781	-1
735.805	4
735.83	-7
735.854	-10
735.879	6
735.903	6
735.927	6
735.952	7
735.976	-4
736.001	2
736.025	-5
736.049	5
736.074	-2
736.098	0
736.123	0
736.147	4
736.171	7
736.196	4
736.22	10
736.244	12
736.269	-15
736.293	7
736.317	11
736.342	-3
736.366	19
736.39	18
736.415	14
736.439	7
736.463	15
736.488	-4
736.512	-1
736.536	4
736.561	15
736.585	2
736.609	17
736.634	-14
736.658	8
736.682	-10
736.707	-13
736.731	-9
736.755	-6
736.78	17
736.804	20
736.828	6
736.852	2
736.877	2
736.901	-5
736.925	-8
736.949	3
736.974	4
736.998	-5
737.022	-6
737.047	8
737.071	-7
737.095	12
737.119	12
737.144	-12
737.168	-4
737.192	0
737.216	7
737.241	0
737.265	-4
737.289	-6
737.313	-8
737.337	22
737.362	-20
737.386	1
737.41	3
737.434	3
737.459	10
737.483	6
737.507	18
737.531	10
737.555	4
737.58	6
737.604	12
737.628	4
737.652	-6
737.676	-8
737.701	11
737.725	-1
737.749	9
737.773	-1
737.797	-12
737.821	0
737.846	-3
737.87	20
737.894	13
737.918	7
737.942	5
737.966	13
737.99	20
738.015	8
738.039	1
738.063	-7
738.087	11
738.111	-3
738.135	8
738.159	-2
738.184	0
738.208	2
738.232	5
738.256	9
738.28	17
738.304	20
738.328	0
738.352	2
738.376	0
738.4	4
738.425	18
738.449	2
738.473	5
738.497	2
738.521	15
738.545	11
738.569	13
738.593	8
738.617	-9
738.641	0
738.665	3
738.689	10
738.713	7
738.737	12
738.762	20
738.786	3
738.81	-15
738.834	7
738.858	-7
738.882	11
738.906	6
738.93	-3
738.954	9
738.978	23
739.002	7
739.026	17
739.05	-3
739.074	5
739.098	34
739.122	16
739.146	3
739.17	18
739.194	0
739.218	-4
739.242	-10
739.266	-3
739.29	14
739.314	3
739.338	2
739.362	-4
739.386	9
739.41	-1
739.434	1
739.458	12
739.482	6
739.506	11
739.53	-3
739.554	10
739.577	-7
739.601	3
739.625	0
739.649	-2
739.673	-9
739.697	23
739.721	1
739.745	1
739.769	6
739.793	12
739.817	15
739.841	5
739.865	-2
739.889	-8
739.912	5
739.936	-1
739.96	4
739.984	21
740.008	-5
740.032	6
740.056	15
740.08	10
740.104	-6
740.127	1
740.151	8
740.175	5
740.199	9
740.223	54
740.247	-3
740.271	-1
740.295	-1
740.318	-12
740.342	-13
740.366	6
740.39	6
740.414	-15
740.438	-3
740.461	14
740.485	14
740.509	-14
740.533	3
740.557	-13
740.581	-3
740.604	-9
740.628	-5
740.652	13
740.676	1
740.7	19
740.723	2
740.747	-4
740.771	-5
740.795	-7
740.819	2
740.842	-12
740.866	5
740.89	-10
740.914	-7
740.938	-14
740.961	0
740.985	2
741.009	-1
741.033	-1
741.056	12
741.08	0
741.104	-9
741.128	-12
741.151	3
741.175	9
741.199	11
741.223	2
741.246	-9
741.27	-14
741.294	-7
741.318	3
741.341	-7
741.365	-3
741.389	10
741.413	21
741.436	28
741.46	19
741.484	5
741.507	5
741.531	19
741.555	18
741.579	8
741.602	31
741.626	16
741.65	4
741.673	5
741.697	12
741.721	1
741.744	-20
741.768	-3
741.792	-2
741.815	-7
741.839	13
741.863	10
741.886	6
741.91	22
741.934	-7
741.957	-18
741.981	2
742.005	1
742.028	-7
742.052	-22
742.075	13
742.099	18
742.123	13
742.146	5
742.17	-7
742.194	-15
742.217	-3
742.241	0
742.264	8
742.288	14
742.312	5
742.335	5
742.359	5
742.382	19
742.406	25
742.43	-11
742.453	7
742.477	-13
742.5	27
742.524	9
742.548	-4
742.571	1
742.595	9
742.618	-8
742.642	-9
742.665	15
742.689	8
742.712	1
742.736	-6
742.76	5
742.783	-12
742.807	16
742.83	13
742.854	-2
742.877	-4
742.901	17
742.924	1
742.948	9
742.971	17
742.995	15
743.018	-14
743.042	-11
743.065	-7
743.089	-2
743.112	5
743.136	-4
743.159	-7
743.183	2
743.206	7
743.23	1
743.253	9
743.277	-8
743.3	-10
743.324	1
743.347	2
743.371	13
743.394	-6
743.418	6
743.441	5
743.465	-3
743.488	12
743.512	10
743.535	10
743.558	20
743.582	1
743.605	2
743.629	1
743.652	4
743.676	14
743.699	18
743.723	4
743.746	12
743.769	8
743.793	9
743.816	2
743.84	28
743.863	6
743.886	9
743.91	9
743.933	6
743.957	10
743.98	-5
744.003	1
744.027	-8
744.05	-1
744.074	18
744.097	-3
744.12	-14
744.144	-1
744.167	15
744.19	4
744.214	-7
744.237	0
744.26	33
744.284	13
744.307	-1
744.331	2
744.354	2
744.377	-6
744.401	5
744.424	7
744.447	-14
744.471	-16
