Data from HighRes_mercury_15_13_11_07_2024_HR4C61891__73__15-14-30-486.txt Node

Date: Thu Nov 07 15:14:30 EST 2024
User: crc00042
Spectrometer: HR4C6189
Trigger mode: 4
Integration Time (sec): 1.000000E-1
Scans to average: 1
Electric dark correction enabled: true
Nonlinearity correction enabled: false
Boxcar width: 0
XAxis mode: Wavelengths
Number of Pixels in Spectrum: 3648
>>>>>Begin Spectral Data<<<<<
639.567	-36
639.602	-36
639.636	-36
639.67	-54
639.704	-17
639.738	9
639.773	5
639.807	-18
639.841	3
639.875	15
639.909	-2
639.943	-11
639.978	6
640.012	4
640.046	6
640.08	2
640.114	-7
640.148	-12
640.182	-7
640.217	-12
640.251	8
640.285	8
640.319	3
640.353	-5
640.387	10
640.421	3
640.455	5
640.49	-7
640.524	-2
640.558	2
640.592	0
640.626	-5
640.66	10
640.694	0
640.728	-1
640.762	14
640.796	16
640.83	17
640.865	-20
640.899	0
640.933	2
640.967	-7
641.001	-2
641.035	-8
641.069	-2
641.103	-10
641.137	7
641.171	-23
641.205	12
641.239	-3
641.273	14
641.307	-5
641.341	-2
641.375	4
641.409	-26
641.443	-5
641.477	15
641.511	10
641.545	8
641.579	-7
641.614	7
641.648	18
641.682	-3
641.716	5
641.75	15
641.784	1
641.818	-4
641.852	14
641.886	6
641.919	37
641.953	13
641.987	-26
642.021	5
642.055	10
642.089	8
642.123	-4
642.157	-12
642.191	-5
642.225	11
642.259	-10
642.293	7
642.327	-4
642.361	2
642.395	9
642.429	6
642.463	9
642.497	8
642.531	5
642.565	3
642.599	12
642.633	-1
642.666	11
642.7	16
642.734	6
642.768	-9
642.802	10
642.836	6
642.87	-10
642.904	11
642.938	7
642.972	-18
643.005	8
643.039	23
643.073	5
643.107	21
643.141	1
643.175	18
643.209	-12
643.243	10
643.276	17
643.31	0
643.344	4
643.378	7
643.412	14
643.446	8
643.48	-4
643.513	14
643.547	6
643.581	-9
643.615	3
643.649	5
643.683	3
643.716	-9
643.75	-7
643.784	-23
643.818	18
643.852	-2
643.886	-2
643.919	-4
643.953	-2
643.987	8
644.021	14
644.055	10
644.088	-5
644.122	0
644.156	-8
644.19	-1
644.224	1
644.257	3
644.291	15
644.325	14
644.359	-2
644.392	15
644.426	15
644.46	0
644.494	9
644.527	-6
644.561	-8
644.595	5
644.629	-9
644.662	-1
644.696	23
644.73	7
644.764	-1
644.797	6
644.831	-4
644.865	11
644.899	5
644.932	28
644.966	7
645	14
645.033	6
645.067	-9
645.101	8
645.135	-2
645.168	2
645.202	-10
645.236	4
645.269	20
645.303	-8
645.337	-3
645.37	-16
645.404	6
645.438	-7
645.471	-11
645.505	14
645.539	1
645.572	-14
645.606	7
645.64	12
645.673	7
645.707	8
645.741	-2
645.774	-11
645.808	7
645.842	1
645.875	-8
645.909	-11
645.943	5
645.976	-9
646.01	0
646.043	16
646.077	13
646.111	1
646.144	2
646.178	19
646.212	-13
646.245	-5
646.279	3
646.312	8
646.346	11
646.38	-8
646.413	-1
646.447	-7
646.48	-5
646.514	12
646.547	-14
646.581	-8
646.615	-12
646.648	-5
646.682	4
646.715	8
646.749	11
646.782	0
646.816	-8
646.85	0
646.883	0
646.917	14
646.95	-9
646.984	-9
647.017	5
647.051	5
647.084	9
647.118	1
647.151	-1
647.185	6
647.218	-11
647.252	8
647.285	-9
647.319	-26
647.353	20
647.386	34
647.42	0
647.453	2
647.487	9
647.52	5
647.553	8
647.587	-5
647.62	-14
647.654	1
647.687	9
647.721	-5
647.754	20
647.788	2
647.821	-12
647.855	-7
647.888	7
647.922	6
647.955	8
647.989	-2
648.022	-3
648.055	3
648.089	-8
648.122	22
648.156	1
648.189	-1
648.223	18
648.256	17
648.29	-3
648.323	14
648.356	6
648.39	2
648.423	4
648.457	-1
648.49	4
648.523	6
648.557	14
648.59	2
648.624	10
648.657	4
648.69	15
648.724	4
648.757	26
648.791	10
648.824	8
648.857	21
648.891	16
648.924	11
648.957	16
648.991	-5
649.024	-3
649.057	-11
649.091	-7
649.124	-1
649.158	15
649.191	23
649.224	-7
649.258	-6
649.291	10
649.324	-12
649.358	-17
649.391	2
649.424	-4
649.458	-11
649.491	2
649.524	-16
649.557	-8
649.591	-7
649.624	7
649.657	-13
649.691	-17
649.724	10
649.757	5
649.791	-8
649.824	25
649.857	12
649.89	9
649.924	1
649.957	11
649.99	-18
650.023	-2
650.057	-4
650.09	21
650.123	-15
650.157	-2
650.19	16
650.223	-3
650.256	-9
650.29	-5
650.323	10
650.356	4
650.389	-14
650.423	-4
650.456	7
650.489	-4
650.522	8
650.555	22
650.589	1
650.622	4
650.655	16
650.688	1
650.721	-13
650.755	15
650.788	9
650.821	-12
650.854	-15
650.887	-1
650.921	-2
650.954	-4
650.987	-10
651.02	-9
651.053	4
651.087	-14
651.12	18
651.153	-1
651.186	10
651.219	-2
651.252	22
651.286	13
651.319	-2
651.352	5
651.385	7
651.418	11
651.451	17
651.484	25
651.518	0
651.551	23
651.584	-24
651.617	8
651.65	4
651.683	1
651.716	-12
651.749	-26
651.783	-1
651.816	5
651.849	6
651.882	9
651.915	2
651.948	0
651.981	-2
652.014	-6
652.047	-9
652.08	-2
652.114	2
652.147	-7
652.18	1
652.213	35
652.246	8
652.279	-14
652.312	0
652.345	-8
652.378	1
652.411	16
652.444	7
652.477	7
652.51	-13
652.543	-11
652.576	1
652.609	6
652.642	0
652.675	11
652.709	0
652.742	0
652.775	16
652.808	13
652.841	5
652.874	5
652.907	12
652.94	0
652.973	-17
653.006	-11
653.039	-2
653.072	-2
653.105	-10
653.138	-15
653.171	8
653.204	7
653.237	7
653.27	-13
653.303	-6
653.336	20
653.368	1
653.401	-15
653.434	-14
653.467	6
653.5	4
653.533	-12
653.566	1
653.599	-16
653.632	-8
653.665	-5
653.698	-10
653.731	0
653.764	-3
653.797	2
653.83	-2
653.863	17
653.896	7
653.929	-8
653.961	-1
653.994	24
654.027	5
654.06	4
654.093	8
654.126	10
654.159	-1
654.192	19
654.225	8
654.258	-5
654.29	-10
654.323	10
654.356	1
654.389	9
654.422	-4
654.455	-10
654.488	-4
654.521	-4
654.553	-15
654.586	13
654.619	7
654.652	-3
654.685	7
654.718	5
654.751	-2
654.783	-11
654.816	16
654.849	11
654.882	-9
654.915	-1
654.948	10
654.98	-4
655.013	-3
655.046	-14
655.079	-23
655.112	-9
655.144	1
655.177	8
655.21	14
655.243	23
655.276	7
655.308	0
655.341	-18
655.374	8
655.407	-2
655.44	-7
655.472	17
655.505	-11
655.538	-7
655.571	21
655.603	5
655.636	-1
655.669	12
655.702	2
655.734	-22
655.767	-16
655.8	7
655.833	4
655.865	12
655.898	1
655.931	1
655.964	-11
655.996	-17
656.029	3
656.062	-2
656.095	0
656.127	-4
656.16	-4
656.193	-3
656.225	-13
656.258	-1
656.291	-15
656.324	-5
656.356	-7
656.389	-2
656.422	6
656.454	2
656.487	-6
656.52	14
656.552	0
656.585	-2
656.618	15
656.65	9
656.683	-3
656.716	-1
656.748	-3
656.781	0
656.814	-10
656.846	1
656.879	5
656.912	13
656.944	-9
656.977	-18
657.01	8
657.042	-7
657.075	5
657.108	-3
657.14	-7
657.173	2
657.205	10
657.238	10
657.271	5
657.303	-14
657.336	-1
657.369	-4
657.401	-4
657.434	2
657.466	7
657.499	8
657.532	5
657.564	25
657.597	16
657.629	4
657.662	8
657.694	10
657.727	-17
657.76	-1
657.792	-27
657.825	-21
657.857	-8
657.89	-5
657.922	14
657.955	-16
657.987	0
658.02	17
658.053	21
658.085	0
658.118	12
658.15	4
658.183	18
658.215	5
658.248	-12
658.28	4
658.313	14
658.345	21
658.378	2
658.41	7
658.443	8
658.475	-3
658.508	-12
658.54	-7
658.573	-9
658.605	16
658.638	-2
658.67	8
658.703	-2
658.735	-31
658.768	-5
658.8	-17
658.833	30
658.865	2
658.898	1
658.93	-12
658.963	-9
658.995	-24
659.028	-5
659.06	-3
659.092	-12
659.125	-1
659.157	13
659.19	-3
659.222	-12
659.255	17
659.287	7
659.32	-8
659.352	-3
659.384	10
659.417	-3
659.449	1
659.482	11
659.514	-30
659.546	10
659.579	-14
659.611	2
659.644	0
659.676	-6
659.708	-9
659.741	0
659.773	18
659.806	5
659.838	-12
659.87	4
659.903	-2
659.935	6
659.967	0
660	1
660.032	-14
660.065	9
660.097	5
660.129	5
660.162	-25
660.194	2
660.226	19
660.259	22
660.291	0
660.323	-9
660.356	-2
660.388	-16
660.42	0
660.453	4
660.485	-9
660.517	14
660.55	7
660.582	-7
660.614	-2
660.647	-13
660.679	-19
660.711	6
660.743	-20
660.776	-12
660.808	0
660.84	-1
660.873	12
660.905	14
660.937	-2
660.969	-3
661.002	2
661.034	11
661.066	-7
661.099	-1
661.131	6
661.163	5
661.195	6
661.228	19
661.26	-4
661.292	-7
661.324	-8
661.357	0
661.389	-5
661.421	-14
661.453	-4
661.485	-4
661.518	1
661.55	-28
661.582	-18
661.614	1
661.647	11
661.679	14
661.711	29
661.743	-22
661.775	-10
661.808	25
661.84	-2
661.872	3
661.904	6
661.936	0
661.969	-16
662.001	-14
662.033	-1
662.065	8
662.097	18
662.129	18
662.162	-14
662.194	0
662.226	3
662.258	4
662.29	7
662.322	-7
662.355	-11
662.387	21
662.419	9
662.451	2
662.483	5
662.515	-4
662.547	0
662.58	-10
662.612	-23
662.644	-19
662.676	6
662.708	14
662.74	-1
662.772	-6
662.804	5
662.836	-7
662.869	-15
662.901	-5
662.933	1
662.965	17
662.997	6
663.029	-23
663.061	-7
663.093	-11
663.125	10
663.157	-1
663.189	16
663.221	19
663.254	10
663.286	2
663.318	-4
663.35	-15
663.382	-2
663.414	6
663.446	6
663.478	-8
663.51	28
663.542	-11
663.574	-3
663.606	-1
663.638	-5
663.67	-12
663.702	1
663.734	-6
663.766	15
663.798	-11
663.83	-5
663.862	3
663.894	2
663.926	8
663.958	24
663.99	17
664.022	1
664.054	-1
664.086	-13
664.118	-19
664.15	-16
664.182	1
664.214	-1
664.246	21
664.278	0
664.31	1
664.342	20
664.374	13
664.406	8
664.438	1
664.47	12
664.502	-8
664.534	4
664.566	-10
664.598	14
664.63	-4
664.662	5
664.693	3
664.725	-5
664.757	-3
664.789	-5
664.821	8
664.853	5
664.885	-5
664.917	-3
664.949	12
664.981	14
665.013	1
665.045	-10
665.076	8
665.108	-4
665.14	-15
665.172	-6
665.204	6
665.236	-8
665.268	6
665.3	-10
665.331	-8
665.363	17
665.395	8
665.427	-13
665.459	9
665.491	-11
665.523	1
665.555	-2
665.586	9
665.618	9
665.65	-23
665.682	18
665.714	-3
665.746	-8
665.777	-4
665.809	7
665.841	3
665.873	12
665.905	1
665.937	14
665.968	2
666	-2
666.032	-2
666.064	3
666.096	7
666.127	9
666.159	2
666.191	9
666.223	0
666.255	5
666.286	5
666.318	-5
666.35	21
666.382	18
666.413	-6
666.445	0
666.477	-11
666.509	-12
666.54	-4
666.572	19
666.604	6
666.636	7
666.667	15
666.699	19
666.731	12
666.763	-3
666.794	0
666.826	4
666.858	-8
666.89	-5
666.921	1
666.953	-3
666.985	24
667.017	21
667.048	11
667.08	-11
667.112	-3
667.143	-15
667.175	-1
667.207	11
667.238	14
667.27	9
667.302	10
667.334	0
667.365	10
667.397	-12
667.429	-15
667.46	19
667.492	10
667.524	9
667.555	-1
667.587	13
667.619	-7
667.65	0
667.682	-1
667.714	11
667.745	6
667.777	6
667.808	12
667.84	14
667.872	10
667.903	31
667.935	0
667.967	8
667.998	-5
668.03	-2
668.061	-4
668.093	-5
668.125	1
668.156	1
668.188	-4
668.22	-5
668.251	7
668.283	1
668.314	17
668.346	9
668.377	22
668.409	12
668.441	28
668.472	26
668.504	12
668.535	13
668.567	5
668.599	-9
668.63	-8
668.662	-1
668.693	36
668.725	9
668.756	5
668.788	-14
668.819	-12
668.851	-5
668.882	8
668.914	-1
668.946	4
668.977	8
669.009	-8
669.04	-2
669.072	16
669.103	2
669.135	-1
669.166	-2
669.198	-1
669.229	8
669.261	2
669.292	8
669.324	8
669.355	-5
669.387	-27
669.418	6
669.45	-15
669.481	19
669.513	11
669.544	3
669.576	-6
669.607	-7
669.639	12
669.67	-7
669.701	-9
669.733	-12
669.764	-7
669.796	0
669.827	-5
669.859	-4
669.89	3
669.922	2
669.953	-3
669.985	-3
670.016	-2
670.047	-1
670.079	6
670.11	6
670.142	-3
670.173	13
670.204	6
670.236	4
670.267	-17
670.299	11
670.33	5
670.362	6
670.393	-7
670.424	-6
670.456	-22
670.487	-8
670.518	-9
670.55	-14
670.581	-17
670.613	-10
670.644	-11
670.675	-18
670.707	1
670.738	2
670.769	6
670.801	0
670.832	9
670.864	-3
670.895	8
670.926	1
670.958	-15
670.989	-4
671.02	11
671.052	1
671.083	5
671.114	-11
671.146	0
671.177	8
671.208	6
671.24	-19
671.271	-17
671.302	11
671.333	1
671.365	-7
671.396	5
671.427	17
671.459	3
671.49	5
671.521	5
671.553	9
671.584	13
671.615	-6
671.646	-8
671.678	3
671.709	-7
671.74	-22
671.771	15
671.803	5
671.834	14
671.865	-11
671.896	-1
671.928	-1
671.959	-1
671.99	-1
672.021	9
672.053	17
672.084	1
672.115	2
672.146	-2
672.178	-12
672.209	-13
672.24	-16
672.271	15
672.303	2
672.334	8
672.365	-3
672.396	1
672.427	-2
672.459	21
672.49	17
672.521	-2
672.552	16
672.583	0
672.615	7
672.646	1
672.677	-10
672.708	3
672.739	2
672.77	5
672.802	4
672.833	-3
672.864	9
672.895	-3
672.926	-6
672.957	0
672.989	4
673.02	1
673.051	-11
673.082	8
673.113	-14
673.144	11
673.175	6
673.206	-14
673.238	-1
673.269	-4
673.3	-7
673.331	13
673.362	13
673.393	2
673.424	14
673.455	9
673.487	4
673.518	-2
673.549	4
673.58	-10
673.611	1
673.642	7
673.673	-19
673.704	-1
673.735	1
673.766	-11
673.797	0
673.828	-1
673.86	-5
673.891	2
673.922	-11
673.953	-8
673.984	3
674.015	-15
674.046	4
674.077	0
674.108	-13
674.139	0
674.17	-2
674.201	-9
674.232	-3
674.263	-11
674.294	-3
674.325	-27
674.356	-14
674.387	6
674.418	18
674.449	-6
674.48	-1
674.511	9
674.542	3
674.573	-9
674.604	8
674.635	0
674.666	17
674.697	8
674.728	-4
674.759	-5
674.79	-26
674.821	-3
674.852	2
674.883	7
674.914	17
674.945	-8
674.976	-7
675.007	-6
675.038	1
675.069	-12
675.1	-13
675.131	-8
675.162	-15
675.193	-8
675.224	4
675.254	-2
675.285	17
675.316	21
675.347	9
675.378	-6
675.409	5
675.44	2
675.471	-8
675.502	-15
675.533	-2
675.564	11
675.595	6
675.625	26
675.656	7
675.687	2
675.718	-20
675.749	3
675.78	-1
675.811	-10
675.842	3
675.873	7
675.903	10
675.934	7
675.965	5
675.996	-6
676.027	-7
676.058	-9
676.089	-14
676.119	12
676.15	-10
676.181	-4
676.212	-6
676.243	14
676.274	1
676.304	20
676.335	-6
676.366	1
676.397	-10
676.428	5
676.459	9
676.489	-1
676.52	4
676.551	5
676.582	-2
676.613	-10
676.643	1
676.674	3
676.705	-14
676.736	0
676.767	18
676.797	-7
676.828	6
676.859	-3
676.89	-12
676.92	-3
676.951	-7
676.982	-1
677.013	7
677.044	20
677.074	29
677.105	11
677.136	11
677.167	5
677.197	1
677.228	2
677.259	7
677.289	0
677.32	-10
677.351	-10
677.382	-18
677.412	-11
677.443	7
677.474	11
677.505	0
677.535	9
677.566	-2
677.597	-12
677.627	-13
677.658	-11
677.689	-3
677.72	-4
677.75	-12
677.781	1
677.812	6
677.842	-2
677.873	5
677.904	-1
677.934	6
677.965	-9
677.996	-20
678.026	-14
678.057	-9
678.088	-20
678.118	3
678.149	3
678.18	-1
678.21	5
678.241	-4
678.272	1
678.302	-11
678.333	19
678.363	7
678.394	8
678.425	7
678.455	19
678.486	13
678.517	6
678.547	4
678.578	8
678.608	-11
678.639	-14
678.67	11
678.7	2
678.731	-1
678.761	7
678.792	0
678.823	6
678.853	-1
678.884	-16
678.914	-15
678.945	2
678.975	-10
679.006	4
679.037	-1
679.067	11
679.098	-4
679.128	-19
679.159	-2
679.189	7
679.22	-12
679.25	-3
679.281	-8
679.312	-14
679.342	1
679.373	24
679.403	6
679.434	2
679.464	0
679.495	-2
679.525	-4
679.556	-6
679.586	3
679.617	-20
679.647	-4
679.678	-1
679.708	2
679.739	2
679.769	-4
679.8	4
679.83	10
679.861	5
679.891	-9
679.922	-7
679.952	-1
679.983	3
680.013	7
680.044	2
680.074	22
680.105	12
680.135	-3
680.165	4
680.196	-5
680.226	2
680.257	5
680.287	9
680.318	2
680.348	0
680.379	0
680.409	7
680.439	2
680.47	-7
680.5	9
680.531	-9
680.561	5
680.592	7
680.622	13
680.652	2
680.683	-3
680.713	-15
680.744	3
680.774	-1
680.804	0
680.835	-6
680.865	-6
680.896	-1
680.926	9
680.956	-3
680.987	6
681.017	-10
681.047	6
681.078	-9
681.108	12
681.139	19
681.169	1
681.199	7
681.23	5
681.26	6
681.29	14
681.321	3
681.351	2
681.381	-13
681.412	-8
681.442	-16
681.472	16
681.503	-1
681.533	-5
681.563	3
681.594	5
681.624	-2
681.654	-18
681.685	-7
681.715	18
681.745	2
681.775	-13
681.806	-6
681.836	0
681.866	-3
681.897	10
681.927	-6
681.957	-13
681.987	-4
682.018	-4
682.048	19
682.078	-1
682.109	14
682.139	19
682.169	12
682.199	7
682.23	-5
682.26	25
682.29	-2
682.32	-13
682.351	-11
682.381	-3
682.411	8
682.441	10
682.472	-4
682.502	-21
682.532	-9
682.562	7
682.592	16
682.623	23
682.653	9
682.683	0
682.713	15
682.743	-1
682.774	10
682.804	6
682.834	21
682.864	-20
682.894	3
682.925	7
682.955	-4
682.985	4
683.015	2
683.045	12
683.076	-8
683.106	-8
683.136	-7
683.166	-4
683.196	10
683.226	-3
683.257	-15
683.287	-7
683.317	-20
683.347	-22
683.377	-4
683.407	0
683.437	5
683.468	8
683.498	-1
683.528	2
683.558	2
683.588	-1
683.618	-2
683.648	-18
683.678	-15
683.708	-3
683.739	1
683.769	-4
683.799	2
683.829	-4
683.859	-9
683.889	17
683.919	2
683.949	-5
683.979	-3
684.009	-13
684.039	-17
684.07	-2
684.1	20
684.13	5
684.16	3
684.19	-9
684.22	-6
684.25	3
684.28	-8
684.31	16
684.34	17
684.37	14
684.4	-23
684.43	6
684.46	4
684.49	2
684.52	1
684.55	29
684.58	1
684.61	-4
684.64	7
684.67	-1
684.7	-11
684.73	-7
684.76	1
684.79	9
684.82	-4
684.85	-13
684.88	-3
684.91	3
684.94	-4
684.97	-3
685	-4
685.03	-2
685.06	-10
685.09	5
685.12	19
685.15	-5
685.18	-3
685.21	-6
685.24	-2
685.27	16
685.3	-7
685.33	-7
685.36	-1
685.39	-8
685.42	-8
685.45	-17
685.48	-4
685.51	-1
685.54	15
685.569	1
685.599	1
685.629	8
685.659	-8
685.689	-6
685.719	4
685.749	4
685.779	2
685.809	10
685.839	1
685.869	23
685.898	14
685.928	-5
685.958	8
685.988	7
686.018	-3
686.048	-4
686.078	16
686.108	8
686.137	6
686.167	24
686.197	-7
686.227	-8
686.257	29
686.287	6
686.317	-2
686.346	-6
686.376	0
686.406	-9
686.436	13
686.466	2
686.496	-12
686.525	-1
686.555	-14
686.585	16
686.615	9
686.645	4
686.675	19
686.704	7
686.734	-1
686.764	-1
686.794	8
686.824	1
686.853	5
686.883	12
686.913	11
686.943	-7
686.973	4
687.002	14
687.032	23
687.062	-7
687.092	21
687.121	-16
687.151	-1
687.181	-2
687.211	0
687.24	-4
687.27	1
687.3	-5
687.33	7
687.359	-8
687.389	-1
687.419	2
687.449	6
687.478	9
687.508	13
687.538	5
687.568	11
687.597	-14
687.627	8
687.657	-2
687.686	15
687.716	29
687.746	-4
687.776	5
687.805	13
687.835	0
687.865	20
687.894	5
687.924	5
687.954	14
687.983	0
688.013	11
688.043	12
688.072	1
688.102	-5
688.132	1
688.161	-8
688.191	4
688.221	21
688.25	-12
688.28	14
688.31	8
688.339	-10
688.369	-8
688.399	-10
688.428	6
688.458	7
688.488	-7
688.517	10
688.547	2
688.576	21
688.606	1
688.636	-11
688.665	9
688.695	8
688.725	1
688.754	-17
688.784	-14
688.813	11
688.843	12
688.873	-7
688.902	8
688.932	8
688.961	10
688.991	8
689.02	9
689.05	-2
689.08	17
689.109	3
689.139	23
689.168	10
689.198	4
689.227	8
689.257	1
689.287	-5
689.316	-10
689.346	-1
689.375	-2
689.405	5
689.434	2
689.464	5
689.493	-7
689.523	0
689.552	-8
689.582	4
689.611	1
689.641	16
689.67	9
689.7	14
689.73	0
689.759	19
689.789	23
689.818	-3
689.848	6
689.877	17
689.906	-5
689.936	-5
689.965	7
689.995	-9
690.024	4
690.054	5
690.083	-1
690.113	8
690.142	5
690.172	-18
690.201	3
690.231	9
690.26	7
690.29	-4
690.319	16
690.348	5
690.378	2
690.407	-9
690.437	-15
690.466	0
690.496	3
690.525	1
690.555	-6
690.584	13
690.613	9
690.643	10
690.672	17
690.702	9
690.731	1
690.76	28
690.79	45
690.819	35
690.849	41
690.878	27
690.907	17
690.937	14
690.966	16
690.996	-7
691.025	-7
691.054	1
691.084	13
691.113	9
691.142	-5
691.172	24
691.201	6
691.23	7
691.26	-1
691.289	14
691.319	1
691.348	4
691.377	13
691.407	2
691.436	13
691.465	-12
691.495	7
691.524	-4
691.553	8
691.583	5
691.612	14
691.641	-4
691.67	-11
691.7	-3
691.729	-4
691.758	2
691.788	8
691.817	-6
691.846	-10
691.876	7
691.905	1
691.934	5
691.963	2
691.993	-4
692.022	-12
692.051	-22
692.081	3
692.11	15
692.139	4
692.168	-6
692.198	15
692.227	-1
692.256	11
692.285	-6
692.315	-10
692.344	2
692.373	4
692.402	-19
692.432	-12
692.461	0
692.49	0
692.519	2
692.548	18
692.578	18
692.607	-15
692.636	-12
692.665	14
692.694	9
692.724	-4
692.753	14
692.782	6
692.811	-8
692.84	4
692.87	6
692.899	2
692.928	11
692.957	0
692.986	9
693.016	9
693.045	11
693.074	1
693.103	8
693.132	13
693.161	-10
693.191	0
693.22	5
693.249	6
693.278	-4
693.307	17
693.336	-2
693.365	-23
693.395	-5
693.424	11
693.453	34
693.482	12
693.511	6
693.54	4
693.569	4
693.598	6
693.628	22
693.657	18
693.686	25
693.715	24
693.744	5
693.773	10
693.802	29
693.831	-1
693.86	8
693.889	7
693.919	19
693.948	3
693.977	17
694.006	0
694.035	-9
694.064	-11
694.093	-2
694.122	2
694.151	4
694.18	13
694.209	8
694.238	4
694.267	30
694.296	14
694.325	-2
694.354	16
694.383	13
694.412	6
694.441	-7
694.471	-7
694.5	-6
694.529	0
694.558	24
694.587	29
694.616	5
694.645	13
694.674	6
694.703	8
694.732	1
694.761	21
694.79	6
694.819	-18
694.848	-1
694.877	26
694.906	17
694.935	10
694.963	12
694.992	9
695.021	32
695.05	28
695.079	4
695.108	1
695.137	22
695.166	9
695.195	-12
695.224	-10
695.253	-8
695.282	1
695.311	10
695.34	5
695.369	15
695.398	16
695.427	19
695.456	9
695.485	11
695.513	5
695.542	6
695.571	6
695.6	5
695.629	25
695.658	24
695.687	3
695.716	-7
695.745	21
695.774	3
695.802	4
695.831	15
695.86	17
695.889	4
695.918	10
695.947	-1
695.976	4
696.005	2
696.033	0
696.062	13
696.091	-4
696.12	17
696.149	6
696.178	6
696.207	5
696.235	-15
696.264	0
696.293	5
696.322	8
696.351	19
696.38	-9
696.408	6
696.437	-4
696.466	7
696.495	0
696.524	9
696.553	8
696.581	20
696.61	5
696.639	-13
696.668	7
696.697	-6
696.725	11
696.754	2
696.783	8
696.812	12
696.84	4
696.869	8
696.898	19
696.927	-11
696.956	11
696.984	-3
697.013	6
697.042	6
697.071	3
697.099	18
697.128	8
697.157	26
697.186	-5
697.214	-11
697.243	-18
697.272	3
697.301	-10
697.329	-8
697.358	1
697.387	18
697.415	7
697.444	6
697.473	9
697.502	-5
697.53	-1
697.559	4
697.588	0
697.616	-1
697.645	-7
697.674	-1
697.703	-8
697.731	12
697.76	-9
697.789	3
697.817	2
697.846	11
697.875	5
697.903	30
697.932	14
697.961	7
697.989	15
698.018	-7
698.047	6
698.075	16
698.104	0
698.133	13
698.161	12
698.19	6
698.218	-18
698.247	13
698.276	0
698.304	24
698.333	17
698.362	9
698.39	7
698.419	20
698.447	1
698.476	-9
698.505	5
698.533	0
698.562	29
698.591	11
698.619	-4
698.648	-7
698.676	10
698.705	-8
698.733	-14
698.762	3
698.791	7
698.819	5
698.848	-9
698.876	25
698.905	5
698.933	10
698.962	15
698.991	9
699.019	20
699.048	8
699.076	4
699.105	-6
699.133	-5
699.162	21
699.19	28
699.219	7
699.248	4
699.276	1
699.305	-8
699.333	15
699.362	-5
699.39	-7
699.419	-7
699.447	11
699.476	7
699.504	12
699.533	2
699.561	-24
699.59	-8
699.618	-1
699.647	1
699.675	-7
699.704	-1
699.732	6
699.761	14
699.789	2
699.818	10
699.846	-5
699.874	-10
699.903	-5
699.931	-5
699.96	23
699.988	-8
700.017	0
700.045	-9
700.074	14
700.102	2
700.13	-4
700.159	6
700.187	8
700.216	-2
700.244	-5
700.273	-15
700.301	-8
700.329	-3
700.358	18
700.386	1
700.415	8
700.443	13
700.472	2
700.5	-11
700.528	11
700.557	15
700.585	-10
700.614	0
700.642	12
700.67	31
700.699	20
700.727	-10
700.755	-10
700.784	-3
700.812	0
700.841	9
700.869	-8
700.897	-14
700.926	0
700.954	27
700.982	16
701.011	-5
701.039	11
701.067	-4
701.096	13
701.124	-18
701.152	-1
701.181	0
701.209	-19
701.237	6
701.266	-8
701.294	-1
701.322	7
701.351	8
701.379	9
701.407	1
701.435	-6
701.464	2
701.492	13
701.52	-11
701.549	-2
701.577	-2
701.605	2
701.634	0
701.662	12
701.69	2
701.718	-15
701.747	7
701.775	15
701.803	6
701.831	13
701.86	6
701.888	13
701.916	4
701.944	19
701.973	4
702.001	-7
702.029	-12
702.057	-8
702.086	-1
702.114	-3
702.142	13
702.17	-10
702.199	-7
702.227	-6
702.255	-5
702.283	13
702.311	4
702.34	-7
702.368	-7
702.396	10
702.424	-8
702.452	0
702.481	6
702.509	-4
702.537	2
702.565	13
702.593	-20
702.621	-8
702.65	16
702.678	15
702.706	7
702.734	-4
702.762	10
702.79	11
702.819	14
702.847	8
702.875	11
702.903	4
702.931	2
702.959	5
702.988	0
703.016	-11
703.044	-3
703.072	4
703.1	-3
703.128	10
703.156	-1
703.184	0
703.212	7
703.241	13
703.269	8
703.297	8
703.325	-1
703.353	-19
703.381	-1
703.409	-10
703.437	-8
703.465	4
703.493	3
703.522	1
703.55	-2
703.578	13
703.606	-22
703.634	-15
703.662	0
703.69	-6
703.718	3
703.746	16
703.774	12
703.802	11
703.83	5
703.858	8
703.886	1
703.914	-6
703.942	13
703.97	0
703.998	-2
704.027	22
704.055	6
704.083	-2
704.111	-10
704.139	-2
704.167	-4
704.195	-4
704.223	-6
704.251	-9
704.279	-7
704.307	7
704.335	-20
704.363	-3
704.391	-3
704.419	-11
704.447	2
704.475	-3
704.503	-10
704.531	18
704.558	12
704.586	-2
704.614	-1
704.642	10
704.67	-4
704.698	-1
704.726	-1
704.754	4
704.782	-12
704.81	-14
704.838	11
704.866	9
704.894	-2
704.922	7
704.95	19
704.978	23
705.006	-10
705.034	19
705.061	-12
705.089	-1
705.117	-6
705.145	2
705.173	11
705.201	13
705.229	10
705.257	1
705.285	1
705.313	11
705.34	4
705.368	-6
705.396	8
705.424	4
705.452	3
705.48	13
705.508	4
705.536	-6
705.563	2
705.591	0
705.619	6
705.647	-24
705.675	-1
705.703	3
705.731	5
705.758	13
705.786	5
705.814	3
705.842	5
705.87	7
705.898	21
705.925	-2
705.953	4
705.981	-2
706.009	6
706.037	0
706.065	-14
706.092	-6
706.12	2
706.148	-9
706.176	1
706.204	0
706.231	17
706.259	4
706.287	-13
706.315	-1
706.342	-26
706.37	10
706.398	-2
706.426	-7
706.454	-12
706.481	15
706.509	-4
706.537	4
706.565	5
706.592	10
706.62	-5
706.648	-15
706.676	-11
706.703	7
706.731	-2
706.759	-4
706.787	8
706.814	-10
706.842	-6
706.87	-1
706.897	9
706.925	6
706.953	15
706.981	19
707.008	9
707.036	14
707.064	6
707.091	2
707.119	16
707.147	4
707.174	0
707.202	12
707.23	-3
707.258	0
707.285	-10
707.313	17
707.341	-11
707.368	-12
707.396	4
707.424	3
707.451	2
707.479	7
707.507	17
707.534	2
707.562	-11
707.59	-5
707.617	1
707.645	10
707.672	0
707.7	-10
707.728	2
707.755	4
707.783	-6
707.811	21
707.838	6
707.866	-8
707.893	5
707.921	-11
707.949	-4
707.976	3
708.004	6
708.031	-16
708.059	9
708.087	16
708.114	-10
708.142	-6
708.169	-6
708.197	-11
708.225	4
708.252	13
708.28	26
708.307	-7
708.335	18
708.362	7
708.39	-3
708.418	-6
708.445	-11
708.473	-17
708.5	-12
708.528	5
708.555	-4
708.583	-13
708.61	-3
708.638	1
708.665	-6
708.693	-1
708.72	-22
708.748	-9
708.776	6
708.803	20
708.831	-2
708.858	11
708.886	1
708.913	12
708.941	1
708.968	15
708.996	6
709.023	26
709.051	4
709.078	0
709.105	4
709.133	1
709.16	3
709.188	9
709.215	7
709.243	6
709.27	-4
709.298	4
709.325	-6
709.353	-7
709.38	17
709.408	9
709.435	9
709.462	13
709.49	13
709.517	11
709.545	-7
709.572	-7
709.6	17
709.627	-3
709.655	-9
709.682	1
709.709	-7
709.737	0
709.764	-6
709.792	5
709.819	-4
709.846	-10
709.874	6
709.901	4
709.929	19
709.956	0
709.983	2
710.011	-3
710.038	-6
710.066	5
710.093	2
710.12	-8
710.148	-8
710.175	0
710.202	-8
710.23	5
710.257	-4
710.284	8
710.312	10
710.339	-8
710.366	1
710.394	-8
710.421	-1
710.448	-3
710.476	-20
710.503	-3
710.53	2
710.558	9
710.585	11
710.612	6
710.64	-2
710.667	-4
710.694	-8
710.722	16
710.749	14
710.776	1
710.804	13
710.831	4
710.858	5
710.885	-9
710.913	-1
710.94	22
710.967	1
710.995	-1
711.022	4
711.049	5
711.076	1
711.104	-1
711.131	-26
711.158	-2
711.185	16
711.213	-5
711.24	5
711.267	-7
711.294	18
711.322	18
711.349	4
711.376	-9
711.403	-1
711.431	-11
711.458	3
711.485	0
711.512	2
711.54	-2
711.567	9
711.594	-11
711.621	-2
711.648	-4
711.676	-4
711.703	6
711.73	-4
711.757	10
711.784	14
711.812	-3
711.839	-2
711.866	-5
711.893	-1
711.92	14
711.947	-2
711.975	5
712.002	12
712.029	11
712.056	0
712.083	12
712.11	-19
712.138	0
712.165	-12
712.192	-4
712.219	-5
712.246	-4
712.273	-6
712.3	-19
712.328	9
712.355	-6
712.382	-8
712.409	8
712.436	-9
712.463	5
712.49	8
712.517	-4
712.544	-8
712.572	10
712.599	-14
712.626	-10
712.653	-18
712.68	-6
712.707	3
712.734	13
712.761	-7
712.788	16
712.815	4
712.842	24
712.87	1
712.897	-14
712.924	-19
712.951	5
712.978	14
713.005	13
713.032	16
713.059	-4
713.086	-1
713.113	-6
713.14	-20
713.167	7
713.194	6
713.221	5
713.248	-3
713.275	-1
713.302	-6
713.329	13
713.356	-7
713.383	5
713.41	0
713.437	-14
713.464	-7
713.491	14
713.518	-14
713.545	5
713.572	18
713.599	24
713.626	2
713.653	-6
713.68	-2
713.707	-6
713.734	10
713.761	0
713.788	-12
713.815	3
713.842	-3
713.869	-4
713.896	23
713.923	11
713.95	3
713.977	-8
714.004	-2
714.031	-4
714.058	3
714.085	-6
714.112	16
714.139	17
714.165	-1
714.192	-11
714.219	-5
714.246	-8
714.273	-5
714.3	-5
714.327	-9
714.354	5
714.381	2
714.408	-8
714.435	-6
714.461	-2
714.488	17
714.515	0
714.542	-12
714.569	-12
714.596	-17
714.623	-11
714.65	-16
714.677	-14
714.703	-9
714.73	-13
714.757	8
714.784	13
714.811	-16
714.838	-3
714.865	-16
714.891	5
714.918	-5
714.945	-9
714.972	-8
714.999	12
715.026	-3
715.052	22
715.079	4
715.106	1
715.133	-3
715.16	-11
715.187	21
715.213	21
715.24	-10
715.267	-1
715.294	-4
715.321	0
715.347	-1
715.374	-13
715.401	-8
715.428	-9
715.455	12
715.481	-9
715.508	9
715.535	-10
715.562	8
715.588	-1
715.615	-1
715.642	-8
715.669	-1
715.695	-16
715.722	-4
715.749	14
715.776	28
715.802	9
715.829	-10
715.856	-20
715.883	10
715.909	-14
715.936	-4
715.963	6
715.99	-1
716.016	-4
716.043	-6
716.07	-12
716.096	-12
716.123	2
716.15	1
716.177	0
716.203	23
716.23	18
716.257	2
716.283	10
716.31	-2
716.337	-1
716.363	-7
716.39	1
716.417	11
716.443	-8
716.47	6
716.497	22
716.523	4
716.55	11
716.577	8
716.603	-5
716.63	1
716.657	10
716.683	-1
716.71	-7
716.737	-4
716.763	13
716.79	14
716.817	8
716.843	17
716.87	-6
716.897	10
716.923	14
716.95	-6
716.976	-14
717.003	2
717.03	18
717.056	2
717.083	2
717.109	-8
717.136	4
717.163	-14
717.189	0
717.216	-4
717.242	-6
717.269	-2
717.296	-4
717.322	10
717.349	13
717.375	-4
717.402	-2
717.428	8
717.455	10
717.481	-3
717.508	13
717.535	-7
717.561	-3
717.588	-3
717.614	-1
717.641	5
717.667	8
717.694	-2
717.72	2
717.747	0
717.773	5
717.8	17
717.826	-3
717.853	5
717.88	12
717.906	6
717.933	11
717.959	-10
717.986	-8
718.012	-28
718.039	4
718.065	6
718.092	2
718.118	0
718.144	-3
718.171	8
718.197	19
718.224	11
718.25	5
718.277	-1
718.303	-1
718.33	1
718.356	-8
718.383	-3
718.409	-2
718.436	6
718.462	0
718.489	-20
718.515	10
718.541	8
718.568	13
718.594	2
718.621	-4
718.647	-6
718.674	8
718.7	3
718.726	7
718.753	6
718.779	1
718.806	-3
718.832	-8
718.858	0
718.885	-9
718.911	1
718.938	8
718.964	-13
718.99	10
719.017	16
719.043	13
719.07	18
719.096	-8
719.122	0
719.149	1
719.175	6
719.201	-8
719.228	-2
719.254	-1
719.281	-5
719.307	10
719.333	0
719.36	8
719.386	9
719.412	16
719.439	-22
719.465	-8
719.491	-13
719.518	7
719.544	-2
719.57	1
719.597	5
719.623	-15
719.649	-19
719.675	-4
719.702	-2
719.728	9
719.754	-10
719.781	-6
719.807	3
719.833	2
719.86	-4
719.886	2
719.912	3
719.938	1
719.965	9
719.991	7
720.017	1
720.044	-20
720.07	8
720.096	-5
720.122	-1
720.149	-2
720.175	22
720.201	2
720.227	-1
720.254	10
720.28	-8
720.306	5
720.332	0
720.359	2
720.385	12
720.411	1
720.437	2
720.463	0
720.49	9
720.516	-2
720.542	-7
720.568	-3
720.595	0
720.621	13
720.647	-8
720.673	4
720.699	-6
720.725	11
720.752	9
720.778	-3
720.804	9
720.83	16
720.856	-11
720.883	-12
720.909	14
720.935	0
720.961	11
720.987	9
721.013	15
721.04	-4
721.066	-17
721.092	-6
721.118	9
721.144	0
721.17	4
721.196	5
721.223	-14
721.249	-9
721.275	15
721.301	-7
721.327	12
721.353	9
721.379	5
721.405	3
721.432	2
721.458	-1
721.484	9
721.51	-25
721.536	6
721.562	-6
721.588	-5
721.614	11
721.64	-5
721.666	-5
721.693	2
721.719	6
721.745	-6
721.771	-7
721.797	5
721.823	6
721.849	25
721.875	18
721.901	4
721.927	9
721.953	0
721.979	16
722.005	0
722.031	3
722.057	17
722.083	-2
722.109	6
722.135	7
722.161	15
722.187	-7
722.214	4
722.24	-2
722.266	-4
722.292	-3
722.318	17
722.344	9
722.37	6
722.396	-4
722.422	11
722.448	12
722.474	2
722.5	10
722.526	3
722.552	3
722.578	13
722.603	20
722.629	-1
722.655	-1
722.681	-7
722.707	5
722.733	-1
722.759	-7
722.785	0
722.811	-4
722.837	-3
722.863	17
722.889	-10
722.915	-4
722.941	0
722.967	-12
722.993	7
723.019	8
723.045	-1
723.071	-2
723.097	-3
723.122	-2
723.148	-6
723.174	-4
723.2	-6
723.226	-2
723.252	10
723.278	6
723.304	-6
723.33	3
723.356	-18
723.381	-18
723.407	-13
723.433	15
723.459	4
723.485	9
723.511	9
723.537	-8
723.563	-3
723.588	3
723.614	9
723.64	-15
723.666	3
723.692	10
723.718	6
723.744	-2
723.769	3
723.795	-22
723.821	-3
723.847	-10
723.873	-10
723.899	-7
723.924	9
723.95	13
723.976	-15
724.002	5
724.028	2
724.053	-1
724.079	-8
724.105	1
724.131	-8
724.157	-12
724.182	6
724.208	-5
724.234	-10
724.26	-2
724.286	7
724.311	2
724.337	0
724.363	5
724.389	5
724.415	7
724.44	15
724.466	-9
724.492	16
724.518	-1
724.543	4
724.569	0
724.595	8
724.621	-6
724.646	-13
724.672	-6
724.698	-6
724.723	3
724.749	22
724.775	11
724.801	4
724.826	3
724.852	-2
724.878	-2
724.904	-24
724.929	-7
724.955	-9
724.981	4
725.006	-2
725.032	-22
725.058	20
725.083	-2
725.109	-11
725.135	-10
725.161	1
725.186	-18
725.212	-7
725.238	24
725.263	0
725.289	-25
725.315	-12
725.34	-11
725.366	-3
725.392	-4
725.417	-8
725.443	-8
725.468	-1
725.494	0
725.52	6
725.545	-8
725.571	-2
725.597	-11
725.622	-3
725.648	1
725.674	17
725.699	6
725.725	-3
725.75	16
725.776	-6
725.802	11
725.827	2
725.853	6
725.878	12
725.904	0
725.93	1
725.955	-14
725.981	-3
726.006	-7
726.032	-1
726.057	-6
726.083	-8
726.109	-14
726.134	-1
726.16	-7
726.185	-19
726.211	-18
726.236	7
726.262	0
726.288	16
726.313	7
726.339	1
726.364	4
726.39	8
726.415	8
726.441	9
726.466	1
726.492	10
726.517	27
726.543	8
726.568	0
726.594	10
726.619	6
726.645	10
726.67	14
726.696	13
726.721	-17
726.747	-26
726.772	9
726.798	9
726.823	12
726.849	-3
726.874	9
726.9	17
726.925	9
726.951	-7
726.976	8
727.002	-9
727.027	18
727.053	18
727.078	-8
727.104	-1
727.129	-12
727.155	-6
727.18	-4
727.205	-2
727.231	6
727.256	-3
727.282	-6
727.307	-4
727.333	-15
727.358	-29
727.383	0
727.409	-5
727.434	4
727.46	-2
727.485	0
727.511	11
727.536	-11
727.561	-5
727.587	-5
727.612	-10
727.637	-2
727.663	0
727.688	19
727.714	13
727.739	3
727.764	-6
727.79	4
727.815	15
727.841	10
727.866	4
727.891	9
727.917	-14
727.942	-16
727.967	-18
727.993	-20
728.018	12
728.043	18
728.069	17
728.094	13
728.119	-3
728.145	31
728.17	7
728.195	-7
728.221	14
728.246	1
728.271	-6
728.297	-6
728.322	-5
728.347	5
728.373	7
728.398	7
728.423	-7
728.448	-3
728.474	3
728.499	13
728.524	-19
728.55	-25
728.575	7
728.6	15
728.625	-8
728.651	-6
728.676	-16
728.701	-6
728.727	1
728.752	-4
728.777	-4
728.802	2
728.828	-3
728.853	-12
728.878	-11
728.903	-15
728.929	-17
728.954	3
728.979	9
729.004	10
729.03	3
729.055	14
729.08	3
729.105	7
729.13	16
729.156	-1
729.181	2
729.206	-20
729.231	-10
729.256	6
729.282	14
729.307	-9
729.332	-10
729.357	-10
729.382	-7
729.408	-1
729.433	5
729.458	21
729.483	2
729.508	5
729.533	1
729.559	-7
729.584	-6
729.609	4
729.634	17
729.659	-8
729.684	-6
729.71	32
729.735	17
729.76	8
729.785	-6
729.81	8
729.835	4
729.86	-7
729.886	23
729.911	23
729.936	22
729.961	44
729.986	16
730.011	56
730.036	202
730.061	1005
730.086	2661
730.112	3353
730.137	2796
730.162	2080
730.187	1630
730.212	1260
730.237	805
730.262	449
730.287	240
730.312	135
730.337	76
730.362	68
730.387	40
730.413	9
730.438	17
730.463	21
730.488	12
730.513	10
730.538	1
730.563	15
730.588	8
730.613	13
730.638	1
730.663	7
730.688	32
730.713	16
730.738	-4
730.763	-3
730.788	-3
730.813	1
730.838	6
730.863	2
730.888	1
730.913	10
730.938	4
730.963	20
730.988	127
731.013	401
731.038	636
731.063	585
731.088	457
731.113	353
731.138	271
731.163	188
731.188	114
731.213	67
731.238	49
731.263	18
731.288	16
731.313	6
731.338	0
731.363	-6
731.388	5
731.413	0
731.438	7
731.463	10
731.487	20
731.512	-7
731.537	-12
731.562	-12
731.587	-2
731.612	22
731.637	7
731.662	-2
731.687	-8
731.712	-20
731.737	-3
731.762	-7
731.786	-5
731.811	1
731.836	7
731.861	-6
731.886	-15
731.911	9
731.936	10
731.961	5
731.986	0
732.01	3
732.035	2
732.06	20
732.085	3
732.11	0
732.135	-18
732.16	0
732.184	5
732.209	-2
732.234	1
732.259	-5
732.284	11
732.309	-14
732.334	-7
732.358	-19
732.383	-19
732.408	5
732.433	10
732.458	4
732.482	6
732.507	-7
732.532	-4
732.557	14
732.582	29
732.607	32
732.631	43
732.656	93
732.681	129
732.706	340
732.73	461
732.755	402
732.78	298
732.805	220
732.83	188
732.854	134
732.879	86
732.904	30
732.929	10
732.953	3
732.978	4
733.003	-15
733.028	-6
733.052	0
733.077	-2
733.102	5
733.127	6
733.151	-11
733.176	4
733.201	-6
733.226	-11
733.25	-4
733.275	-7
733.3	-2
733.324	32
733.349	0
733.374	19
733.399	11
733.423	13
733.448	-4
733.473	-6
733.497	-9
733.522	2
733.547	0
733.571	10
733.596	-5
733.621	0
733.646	-3
733.67	0
733.695	-1
733.72	18
733.744	14
733.769	2
733.794	10
733.818	1
733.843	-7
733.867	-4
733.892	-12
733.917	-5
733.941	-11
733.966	1
733.991	14
734.015	1
734.04	-17
734.065	8
734.089	20
734.114	-5
734.138	5
734.163	-1
734.188	16
734.212	23
734.237	4
734.261	6
734.286	-8
734.311	-3
734.335	-3
734.36	3
734.384	9
734.409	5
734.434	-3
734.458	0
734.483	5
734.507	-6
734.532	-7
734.556	-2
734.581	-1
734.606	7
734.63	-11
734.655	-5
734.679	4
734.704	2
734.728	1
734.753	-9
734.777	12
734.802	-3
734.826	7
734.851	-8
734.876	8
734.9	15
734.925	2
734.949	-6
734.974	-1
734.998	-2
735.023	-8
735.047	-15
735.072	10
735.096	4
735.121	-11
735.145	-3
735.17	4
735.194	23
735.219	-6
735.243	-2
735.268	-5
735.292	7
735.317	3
735.341	1
735.365	-16
735.39	11
735.414	0
735.439	-4
735.463	5
735.488	5
735.512	14
735.537	-2
735.561	8
735.586	4
735.61	13
735.634	-4
735.659	0
735.683	11
735.708	-4
735.732	-10
735.757	10
735.781	0
735.805	17
735.83	0
735.854	-4
735.879	1
735.903	10
735.927	9
735.952	4
735.976	10
736.001	-6
736.025	15
736.049	11
736.074	0
736.098	-3
736.123	5
736.147	5
736.171	2
736.196	11
736.22	1
736.244	5
736.269	3
736.293	0
736.317	-12
736.342	17
736.366	-7
736.39	13
736.415	7
736.439	4
736.463	6
736.488	12
736.512	-1
736.536	7
736.561	24
736.585	-1
736.609	5
736.634	-4
736.658	1
736.682	-19
736.707	-3
736.731	-16
736.755	2
736.78	25
736.804	4
736.828	-6
736.852	-5
736.877	-2
736.901	14
736.925	-3
736.949	1
736.974	10
736.998	-14
737.022	4
737.047	1
737.071	-1
737.095	19
737.119	25
737.144	-3
737.168	-4
737.192	-12
737.216	0
737.241	-16
737.265	3
737.289	-6
737.313	1
737.337	22
737.362	0
737.386	21
737.41	-9
737.434	-7
737.459	6
737.483	0
737.507	24
737.531	17
737.555	7
737.58	3
737.604	-7
737.628	-10
737.652	4
737.676	1
737.701	16
737.725	8
737.749	15
737.773	6
737.797	-8
737.821	16
737.846	3
737.87	13
737.894	-2
737.918	4
737.942	-9
737.966	5
737.99	-7
738.015	-3
738.039	17
738.063	14
738.087	21
738.111	4
738.135	-2
738.159	-3
738.184	4
738.208	-3
738.232	-4
738.256	14
738.28	13
738.304	3
738.328	-1
738.352	2
738.376	-1
738.4	21
738.425	-1
738.449	14
738.473	30
738.497	0
738.521	5
738.545	12
738.569	5
738.593	10
738.617	1
738.641	4
738.665	11
738.689	2
738.713	-5
738.737	14
738.762	24
738.786	9
738.81	-6
738.834	6
738.858	-1
738.882	9
738.906	-4
738.93	9
738.954	9
738.978	15
739.002	-7
739.026	6
739.05	4
739.074	10
739.098	29
739.122	2
739.146	14
739.17	5
739.194	10
739.218	-6
739.242	-11
739.266	-7
739.29	13
739.314	8
739.338	-11
739.362	1
739.386	13
739.41	0
739.434	-7
739.458	6
739.482	1
739.506	3
739.53	1
739.554	9
739.577	-10
739.601	18
739.625	-13
739.649	8
739.673	1
739.697	6
739.721	-2
739.745	1
739.769	13
739.793	9
739.817	23
739.841	-7
739.865	16
739.889	5
739.912	16
739.936	-18
739.96	-9
739.984	5
740.008	6
740.032	-4
740.056	1
740.08	6
740.104	0
740.127	0
740.151	9
740.175	11
740.199	18
740.223	45
740.247	8
740.271	15
740.295	9
740.318	-18
740.342	-17
740.366	6
740.39	4
740.414	9
740.438	0
740.461	2
740.485	-5
740.509	-17
740.533	-10
740.557	-20
740.581	-17
740.604	-17
740.628	-10
740.652	7
740.676	3
740.7	-2
740.723	-4
740.747	-9
740.771	-4
740.795	-11
740.819	13
740.842	-1
740.866	10
740.89	15
740.914	-3
740.938	-6
740.961	7
740.985	6
741.009	6
741.033	10
741.056	10
741.08	-16
741.104	-11
741.128	-6
741.151	9
741.175	-1
741.199	6
741.223	24
741.246	-4
741.27	20
741.294	17
741.318	-3
741.341	-1
741.365	0
741.389	0
741.413	-8
741.436	17
741.46	15
741.484	7
741.507	0
741.531	33
741.555	21
741.579	-4
741.602	9
741.626	2
741.65	1
741.673	4
741.697	8
741.721	-2
741.744	-16
741.768	-4
741.792	1
741.815	-3
741.839	-1
741.863	23
741.886	21
741.91	18
741.934	8
741.957	-9
741.981	9
742.005	-3
742.028	-8
742.052	-3
742.075	2
742.099	-2
742.123	-4
742.146	4
742.17	10
742.194	-8
742.217	-4
742.241	12
742.264	6
742.288	20
742.312	32
742.335	18
742.359	-3
742.382	10
742.406	21
742.43	5
742.453	15
742.477	-6
742.5	-5
742.524	-15
742.548	-10
742.571	-7
742.595	4
742.618	-16
742.642	-20
742.665	-11
742.689	-19
742.712	13
742.736	9
742.76	-18
742.783	-14
742.807	5
742.83	6
742.854	5
742.877	2
742.901	-14
742.924	-7
742.948	9
742.971	3
742.995	2
743.018	-4
743.042	-16
743.065	-10
743.089	1
743.112	-2
743.136	-1
743.159	4
743.183	-5
743.206	-6
743.23	-16
743.253	1
743.277	13
743.3	12
743.324	7
743.347	-5
743.371	17
743.394	8
743.418	13
743.441	9
743.465	-5
743.488	5
743.512	-8
743.535	-22
743.558	-9
743.582	-3
743.605	0
743.629	6
743.652	10
743.676	-9
743.699	-3
743.723	5
743.746	15
743.769	10
743.793	-1
743.816	-9
743.84	5
743.863	-5
743.886	12
743.91	7
743.933	6
743.957	5
743.98	3
744.003	-12
744.027	19
744.05	-17
744.074	-10
744.097	-22
744.12	-6
744.144	-14
744.167	13
744.19	4
744.214	-7
744.237	-2
744.26	10
744.284	-6
744.307	-11
744.331	2
744.354	-14
744.377	-8
744.401	-7
744.424	-7
744.447	-13
744.471	2
