Data from HighRes_mercury_15_13_11_07_2024_HR4C61891__17__15-14-24-886.txt Node

Date: Thu Nov 07 15:14:24 EST 2024
User: crc00042
Spectrometer: HR4C6189
Trigger mode: 4
Integration Time (sec): 1.000000E-1
Scans to average: 1
Electric dark correction enabled: true
Nonlinearity correction enabled: false
Boxcar width: 0
XAxis mode: Wavelengths
Number of Pixels in Spectrum: 3648
>>>>>Begin Spectral Data<<<<<
639.567	-46
639.602	-46
639.636	-46
639.67	-39
639.704	-19
639.738	-13
639.773	12
639.807	-14
639.841	2
639.875	1
639.909	3
639.943	-11
639.978	-11
640.012	1
640.046	23
640.08	6
640.114	13
640.148	-12
640.182	-10
640.217	15
640.251	8
640.285	13
640.319	-2
640.353	2
640.387	-9
640.421	-5
640.455	-1
640.49	-3
640.524	-1
640.558	2
640.592	9
640.626	0
640.66	7
640.694	5
640.728	6
640.762	6
640.796	18
640.83	25
640.865	10
640.899	9
640.933	4
640.967	-6
641.001	-4
641.035	15
641.069	3
641.103	8
641.137	4
641.171	-16
641.205	4
641.239	-13
641.273	12
641.307	24
641.341	0
641.375	-7
641.409	0
641.443	10
641.477	7
641.511	11
641.545	12
641.579	3
641.614	6
641.648	8
641.682	-3
641.716	-1
641.75	0
641.784	-6
641.818	-6
641.852	-5
641.886	-7
641.919	31
641.953	-3
641.987	1
642.021	1
642.055	-4
642.089	-9
642.123	-5
642.157	-7
642.191	-9
642.225	32
642.259	2
642.293	6
642.327	11
642.361	-2
642.395	-11
642.429	24
642.463	15
642.497	14
642.531	-10
642.565	-13
642.599	4
642.633	-9
642.666	23
642.7	14
642.734	19
642.768	1
642.802	-5
642.836	4
642.87	-1
642.904	-1
642.938	6
642.972	9
643.005	3
643.039	17
643.073	-14
643.107	-5
643.141	10
643.175	29
643.209	3
643.243	4
643.276	8
643.31	-2
643.344	-2
643.378	-2
643.412	0
643.446	9
643.48	1
643.513	19
643.547	-9
643.581	-5
643.615	3
643.649	-8
643.683	14
643.716	4
643.75	2
643.784	-1
643.818	10
643.852	-7
643.886	2
643.919	17
643.953	-3
643.987	5
644.021	25
644.055	12
644.088	1
644.122	2
644.156	12
644.19	-1
644.224	-3
644.257	20
644.291	26
644.325	13
644.359	-1
644.392	16
644.426	5
644.46	3
644.494	19
644.527	3
644.561	0
644.595	12
644.629	-16
644.662	-6
644.696	8
644.73	1
644.764	7
644.797	8
644.831	-3
644.865	10
644.899	11
644.932	29
644.966	0
645	18
645.033	21
645.067	4
645.101	8
645.135	-3
645.168	0
645.202	-7
645.236	18
645.269	24
645.303	-3
645.337	-10
645.37	3
645.404	1
645.438	8
645.471	-10
645.505	4
645.539	1
645.572	-3
645.606	-1
645.64	1
645.673	6
645.707	26
645.741	-3
645.774	-19
645.808	0
645.842	-3
645.875	15
645.909	-8
645.943	-13
645.976	-2
646.01	8
646.043	8
646.077	13
646.111	2
646.144	20
646.178	29
646.212	-5
646.245	1
646.279	10
646.312	7
646.346	18
646.38	1
646.413	4
646.447	-2
646.48	-1
646.514	4
646.547	-3
646.581	-10
646.615	4
646.648	-6
646.682	2
646.715	12
646.749	10
646.782	4
646.816	-7
646.85	-4
646.883	-10
646.917	-7
646.95	5
646.984	8
647.017	10
647.051	5
647.084	7
647.118	-13
647.151	-1
647.185	8
647.218	-29
647.252	-1
647.285	-4
647.319	-18
647.353	4
647.386	20
647.42	8
647.453	0
647.487	1
647.52	7
647.553	3
647.587	6
647.62	2
647.654	18
647.687	18
647.721	10
647.754	1
647.788	3
647.821	-23
647.855	0
647.888	14
647.922	13
647.955	11
647.989	6
648.022	10
648.055	7
648.089	-3
648.122	31
648.156	5
648.189	15
648.223	4
648.256	13
648.29	-3
648.323	0
648.356	4
648.39	-8
648.423	2
648.457	4
648.49	6
648.523	19
648.557	-13
648.59	-18
648.624	9
648.657	11
648.69	25
648.724	19
648.757	22
648.791	7
648.824	-15
648.857	22
648.891	11
648.924	-6
648.957	5
648.991	-11
649.024	7
649.057	-7
649.091	4
649.124	13
649.158	18
649.191	16
649.224	12
649.258	3
649.291	9
649.324	11
649.358	17
649.391	12
649.424	12
649.458	4
649.491	12
649.524	-9
649.557	-18
649.591	0
649.624	2
649.657	-12
649.691	-1
649.724	2
649.757	8
649.791	-10
649.824	32
649.857	10
649.89	5
649.924	-10
649.957	6
649.99	-12
650.023	-5
650.057	4
650.09	14
650.123	14
650.157	2
650.19	-1
650.223	4
650.256	-1
650.29	9
650.323	8
650.356	13
650.389	-3
650.423	-14
650.456	23
650.489	0
650.522	-6
650.555	-1
650.589	10
650.622	-3
650.655	3
650.688	15
650.721	31
650.755	9
650.788	8
650.821	-11
650.854	8
650.887	1
650.921	-9
650.954	3
650.987	5
651.02	7
651.053	3
651.087	-14
651.12	23
651.153	2
651.186	-3
651.219	-8
651.252	5
651.286	6
651.319	-2
651.352	-4
651.385	10
651.418	15
651.451	22
651.484	0
651.518	-1
651.551	17
651.584	-17
651.617	18
651.65	9
651.683	5
651.716	4
651.749	-6
651.783	-9
651.816	-21
651.849	-6
651.882	-10
651.915	2
651.948	-2
651.981	-12
652.014	-23
652.047	-11
652.08	-12
652.114	1
652.147	-15
652.18	5
652.213	26
652.246	-4
652.279	-8
652.312	1
652.345	-5
652.378	-2
652.411	24
652.444	21
652.477	6
652.51	8
652.543	9
652.576	4
652.609	-15
652.642	8
652.675	3
652.709	-14
652.742	11
652.775	0
652.808	14
652.841	10
652.874	8
652.907	3
652.94	-6
652.973	1
653.006	-16
653.039	6
653.072	-2
653.105	-1
653.138	-8
653.171	3
653.204	-2
653.237	5
653.27	2
653.303	4
653.336	-2
653.368	-15
653.401	-3
653.434	-3
653.467	14
653.5	-5
653.533	0
653.566	2
653.599	-1
653.632	-10
653.665	8
653.698	-2
653.731	3
653.764	9
653.797	12
653.83	-5
653.863	2
653.896	-8
653.929	15
653.961	13
653.994	2
654.027	6
654.06	6
654.093	-6
654.126	8
654.159	2
654.192	3
654.225	-3
654.258	-11
654.29	-1
654.323	-1
654.356	-3
654.389	-7
654.422	-5
654.455	8
654.488	2
654.521	-14
654.553	2
654.586	18
654.619	0
654.652	-6
654.685	17
654.718	19
654.751	19
654.783	-9
654.816	7
654.849	11
654.882	-17
654.915	-4
654.948	-9
654.98	-11
655.013	-3
655.046	4
655.079	2
655.112	-12
655.144	-18
655.177	-3
655.21	17
655.243	22
655.276	14
655.308	-16
655.341	8
655.374	15
655.407	-5
655.44	-15
655.472	15
655.505	-18
655.538	-18
655.571	10
655.603	-12
655.636	-13
655.669	1
655.702	-14
655.734	-16
655.767	6
655.8	6
655.833	-6
655.865	8
655.898	4
655.931	6
655.964	-14
655.996	8
656.029	9
656.062	2
656.095	1
656.127	-24
656.16	3
656.193	1
656.225	3
656.258	-6
656.291	-10
656.324	-1
656.356	1
656.389	-5
656.422	-2
656.454	-19
656.487	3
656.52	7
656.552	8
656.585	3
656.618	19
656.65	17
656.683	-10
656.716	7
656.748	2
656.781	4
656.814	-14
656.846	-1
656.879	5
656.912	1
656.944	-9
656.977	-14
657.01	-14
657.042	13
657.075	12
657.108	-10
657.14	6
657.173	9
657.205	34
657.238	10
657.271	-8
657.303	1
657.336	9
657.369	2
657.401	6
657.434	-3
657.466	7
657.499	-6
657.532	2
657.564	7
657.597	-1
657.629	11
657.662	15
657.694	8
657.727	-7
657.76	5
657.792	-23
657.825	-13
657.857	-8
657.89	-2
657.922	6
657.955	6
657.987	7
658.02	11
658.053	17
658.085	9
658.118	6
658.15	1
658.183	27
658.215	7
658.248	-12
658.28	-10
658.313	4
658.345	3
658.378	5
658.41	-4
658.443	20
658.475	15
658.508	-4
658.54	-16
658.573	2
658.605	-4
658.638	-1
658.67	13
658.703	0
658.735	-9
658.768	8
658.8	-19
658.833	20
658.865	-6
658.898	-11
658.93	-2
658.963	2
658.995	1
659.028	13
659.06	-7
659.092	7
659.125	-2
659.157	12
659.19	5
659.222	8
659.255	7
659.287	7
659.32	6
659.352	-8
659.384	-4
659.417	-8
659.449	11
659.482	-1
659.514	-16
659.546	-3
659.579	-10
659.611	-4
659.644	-5
659.676	11
659.708	-14
659.741	2
659.773	3
659.806	10
659.838	-2
659.87	8
659.903	-14
659.935	-2
659.967	14
660	8
660.032	-5
660.065	4
660.097	3
660.129	13
660.162	-8
660.194	2
660.226	0
660.259	6
660.291	-16
660.323	-4
660.356	4
660.388	0
660.42	1
660.453	2
660.485	5
660.517	7
660.55	17
660.582	-3
660.614	5
660.647	3
660.679	-17
660.711	-13
660.743	-12
660.776	-10
660.808	-8
660.84	6
660.873	-2
660.905	-5
660.937	-9
660.969	15
661.002	8
661.034	12
661.066	-9
661.099	18
661.131	11
661.163	9
661.195	-7
661.228	11
661.26	-5
661.292	-7
661.324	-14
661.357	-7
661.389	0
661.421	-5
661.453	-6
661.485	16
661.518	17
661.55	-22
661.582	-3
661.614	0
661.647	3
661.679	-4
661.711	11
661.743	2
661.775	29
661.808	7
661.84	-7
661.872	14
661.904	6
661.936	-4
661.969	10
662.001	-3
662.033	0
662.065	-4
662.097	1
662.129	11
662.162	-7
662.194	-5
662.226	9
662.258	5
662.29	-4
662.322	-17
662.355	-1
662.387	14
662.419	14
662.451	10
662.483	3
662.515	-1
662.547	-6
662.58	1
662.612	1
662.644	-9
662.676	0
662.708	7
662.74	5
662.772	-1
662.804	17
662.836	14
662.869	0
662.901	19
662.933	14
662.965	10
662.997	23
663.029	-5
663.061	-6
663.093	1
663.125	1
663.157	-2
663.189	7
663.221	9
663.254	7
663.286	4
663.318	-6
663.35	-18
663.382	-14
663.414	-3
663.446	-7
663.478	5
663.51	5
663.542	-12
663.574	-12
663.606	2
663.638	2
663.67	6
663.702	5
663.734	5
663.766	18
663.798	-5
663.83	19
663.862	10
663.894	8
663.926	-6
663.958	10
663.99	4
664.022	-5
664.054	7
664.086	-14
664.118	-6
664.15	-1
664.182	14
664.214	-1
664.246	14
664.278	14
664.31	24
664.342	17
664.374	4
664.406	1
664.438	5
664.47	12
664.502	-6
664.534	5
664.566	-17
664.598	2
664.63	-8
664.662	-5
664.693	-7
664.725	-12
664.757	-18
664.789	-25
664.821	6
664.853	7
664.885	-7
664.917	17
664.949	15
664.981	7
665.013	13
665.045	-8
665.076	-6
665.108	-5
665.14	15
665.172	11
665.204	9
665.236	-5
665.268	8
665.3	-3
665.331	-10
665.363	8
665.395	-14
665.427	-11
665.459	-3
665.491	2
665.523	9
665.555	9
665.586	-1
665.618	1
665.65	-20
665.682	6
665.714	7
665.746	-10
665.777	-1
665.809	-11
665.841	3
665.873	2
665.905	8
665.937	17
665.968	-2
666	4
666.032	12
666.064	3
666.096	11
666.127	21
666.159	19
666.191	19
666.223	0
666.255	7
666.286	-3
666.318	3
666.35	38
666.382	8
666.413	-10
666.445	-15
666.477	-11
666.509	-5
666.54	-1
666.572	-2
666.604	-10
666.636	2
666.667	1
666.699	16
666.731	1
666.763	-24
666.794	-9
666.826	6
666.858	-8
666.89	8
666.921	-15
666.953	-1
666.985	14
667.017	11
667.048	-3
667.08	-1
667.112	1
667.143	-3
667.175	16
667.207	1
667.238	-3
667.27	6
667.302	23
667.334	-2
667.365	24
667.397	2
667.429	0
667.46	7
667.492	8
667.524	11
667.555	5
667.587	-1
667.619	-7
667.65	-2
667.682	9
667.714	8
667.745	18
667.777	4
667.808	18
667.84	17
667.872	0
667.903	36
667.935	-9
667.967	0
667.998	7
668.03	-7
668.061	7
668.093	6
668.125	15
668.156	11
668.188	6
668.22	6
668.251	11
668.283	20
668.314	18
668.346	5
668.377	38
668.409	18
668.441	11
668.472	4
668.504	6
668.535	7
668.567	12
668.599	7
668.63	4
668.662	-1
668.693	23
668.725	19
668.756	8
668.788	1
668.819	6
668.851	6
668.882	12
668.914	7
668.946	8
668.977	-11
669.009	5
669.04	0
669.072	12
669.103	-1
669.135	-5
669.166	5
669.198	-13
669.229	5
669.261	1
669.292	1
669.324	7
669.355	21
669.387	4
669.418	6
669.45	-8
669.481	1
669.513	16
669.544	10
669.576	-7
669.607	16
669.639	16
669.67	7
669.701	6
669.733	-8
669.764	18
669.796	3
669.827	-3
669.859	-13
669.89	13
669.922	10
669.953	24
669.985	15
670.016	4
670.047	1
670.079	-5
670.11	1
670.142	-2
670.173	-8
670.204	-7
670.236	-1
670.267	-11
670.299	-2
670.33	1
670.362	5
670.393	-3
670.424	14
670.456	-10
670.487	13
670.518	-5
670.55	-3
670.581	-3
670.613	4
670.644	-14
670.675	-3
670.707	1
670.738	7
670.769	-10
670.801	-11
670.832	9
670.864	4
670.895	-6
670.926	1
670.958	-7
670.989	-5
671.02	-9
671.052	3
671.083	-5
671.114	-7
671.146	6
671.177	2
671.208	-5
671.24	-16
671.271	-12
671.302	-2
671.333	-3
671.365	-6
671.396	5
671.427	14
671.459	7
671.49	11
671.521	3
671.553	4
671.584	13
671.615	6
671.646	3
671.678	-9
671.709	-28
671.74	-13
671.771	0
671.803	-6
671.834	1
671.865	2
671.896	5
671.928	2
671.959	-10
671.99	-26
672.021	-7
672.053	14
672.084	21
672.115	-2
672.146	10
672.178	-1
672.209	2
672.24	4
672.271	18
672.303	4
672.334	-11
672.365	-8
672.396	-3
672.427	12
672.459	16
672.49	23
672.521	-15
672.552	22
672.583	13
672.615	-2
672.646	12
672.677	9
672.708	11
672.739	14
672.77	7
672.802	7
672.833	-6
672.864	-12
672.895	-9
672.926	-2
672.957	-16
672.989	0
673.02	4
673.051	-4
673.082	1
673.113	10
673.144	12
673.175	-2
673.206	-7
673.238	10
673.269	-3
673.3	-6
673.331	6
673.362	3
673.393	9
673.424	7
673.455	16
673.487	12
673.518	24
673.549	3
673.58	-2
673.611	0
673.642	-5
673.673	-18
673.704	2
673.735	-5
673.766	-16
673.797	-12
673.828	8
673.86	-20
673.891	-9
673.922	-3
673.953	2
673.984	-5
674.015	6
674.046	-7
674.077	7
674.108	-5
674.139	-18
674.17	-14
674.201	-17
674.232	-17
674.263	-11
674.294	-2
674.325	-7
674.356	19
674.387	24
674.418	1
674.449	-18
674.48	-11
674.511	-9
674.542	2
674.573	-4
674.604	31
674.635	7
674.666	21
674.697	3
674.728	8
674.759	2
674.79	-23
674.821	-2
674.852	1
674.883	-3
674.914	11
674.945	-5
674.976	-4
675.007	-14
675.038	-7
675.069	-12
675.1	-8
675.131	-2
675.162	-14
675.193	-13
675.224	-6
675.254	-2
675.285	10
675.316	8
675.347	6
675.378	-27
675.409	-8
675.44	-2
675.471	10
675.502	-1
675.533	23
675.564	11
675.595	4
675.625	31
675.656	10
675.687	7
675.718	-13
675.749	6
675.78	-2
675.811	9
675.842	9
675.873	5
675.903	-6
675.934	-11
675.965	-2
675.996	-7
676.027	-6
676.058	2
676.089	-7
676.119	-1
676.15	-5
676.181	-1
676.212	-5
676.243	-1
676.274	-11
676.304	21
676.335	3
676.366	11
676.397	1
676.428	3
676.459	7
676.489	-1
676.52	18
676.551	2
676.582	-14
676.613	0
676.643	-5
676.674	0
676.705	-14
676.736	6
676.767	10
676.797	5
676.828	-5
676.859	1
676.89	3
676.92	9
676.951	12
676.982	12
677.013	3
677.044	6
677.074	30
677.105	2
677.136	9
677.167	2
677.197	12
677.228	6
677.259	12
677.289	-2
677.32	-12
677.351	-25
677.382	-5
677.412	-5
677.443	-1
677.474	-2
677.505	-6
677.535	3
677.566	-5
677.597	-15
677.627	3
677.658	9
677.689	18
677.72	-1
677.75	-16
677.781	-14
677.812	2
677.842	12
677.873	7
677.904	-1
677.934	-15
677.965	-11
677.996	-25
678.026	6
678.057	15
678.088	-6
678.118	-6
678.149	-18
678.18	-9
678.21	10
678.241	13
678.272	-11
678.302	-2
678.333	0
678.363	3
678.394	8
678.425	0
678.455	-1
678.486	11
678.517	4
678.547	4
678.578	5
678.608	-10
678.639	-3
678.67	9
678.7	3
678.731	-3
678.761	-7
678.792	-8
678.823	7
678.853	-3
678.884	7
678.914	12
678.945	3
678.975	-11
679.006	6
679.037	-7
679.067	24
679.098	0
679.128	-9
679.159	-5
679.189	14
679.22	3
679.25	4
679.281	4
679.312	-1
679.342	8
679.373	23
679.403	2
679.434	5
679.464	5
679.495	11
679.525	3
679.556	1
679.586	5
679.617	7
679.647	7
679.678	10
679.708	9
679.739	-5
679.769	-17
679.8	-7
679.83	11
679.861	20
679.891	0
679.922	-4
679.952	-7
679.983	14
680.013	-9
680.044	-5
680.074	-1
680.105	4
680.135	-2
680.165	10
680.196	-4
680.226	-16
680.257	5
680.287	4
680.318	-3
680.348	-20
680.379	14
680.409	15
680.439	-7
680.47	5
680.5	-9
680.531	-2
680.561	4
680.592	31
680.622	24
680.652	-12
680.683	8
680.713	-2
680.744	-13
680.774	-7
680.804	9
680.835	13
680.865	0
680.896	10
680.926	12
680.956	9
680.987	3
681.017	-14
681.047	5
681.078	-14
681.108	1
681.139	6
681.169	1
681.199	-11
681.23	11
681.26	10
681.29	8
681.321	-7
681.351	-14
681.381	-23
681.412	3
681.442	9
681.472	16
681.503	-19
681.533	0
681.563	2
681.594	0
681.624	-3
681.654	-5
681.685	-18
681.715	13
681.745	20
681.775	-11
681.806	6
681.836	-3
681.866	-16
681.897	8
681.927	-10
681.957	-18
681.987	-5
682.018	-16
682.048	-4
682.078	7
682.109	17
682.139	3
682.169	-8
682.199	-1
682.23	0
682.26	1
682.29	-8
682.32	-6
682.351	-13
682.381	-3
682.411	-4
682.441	1
682.472	-2
682.502	-2
682.532	5
682.562	-1
682.592	1
682.623	8
682.653	1
682.683	-1
682.713	17
682.743	3
682.774	-5
682.804	6
682.834	6
682.864	-4
682.894	-10
682.925	-7
682.955	-11
682.985	-12
683.015	-8
683.045	-1
683.076	-14
683.106	-6
683.136	-13
683.166	-8
683.196	-17
683.226	3
683.257	-9
683.287	-12
683.317	1
683.347	-5
683.377	-3
683.407	-3
683.437	3
683.468	7
683.498	0
683.528	-6
683.558	-1
683.588	-20
683.618	1
683.648	-7
683.678	-4
683.708	-10
683.739	2
683.769	2
683.799	-15
683.829	-5
683.859	4
683.889	9
683.919	-19
683.949	9
683.979	-7
684.009	8
684.039	-4
684.07	1
684.1	15
684.13	-1
684.16	-4
684.19	-2
684.22	6
684.25	16
684.28	-12
684.31	5
684.34	4
684.37	4
684.4	-5
684.43	-1
684.46	1
684.49	17
684.52	1
684.55	3
684.58	2
684.61	6
684.64	-2
684.67	6
684.7	6
684.73	11
684.76	-6
684.79	19
684.82	11
684.85	-6
684.88	6
684.91	0
684.94	18
684.97	-9
685	-11
685.03	-5
685.06	-11
685.09	-3
685.12	13
685.15	-10
685.18	3
685.21	3
685.24	17
685.27	16
685.3	-10
685.33	5
685.36	-10
685.39	-6
685.42	-5
685.45	-12
685.48	2
685.51	-6
685.54	13
685.569	17
685.599	4
685.629	12
685.659	-1
685.689	4
685.719	11
685.749	7
685.779	8
685.809	7
685.839	-5
685.869	3
685.898	-2
685.928	1
685.958	-1
685.988	10
686.018	12
686.048	6
686.078	26
686.108	10
686.137	-2
686.167	12
686.197	0
686.227	1
686.257	18
686.287	15
686.317	3
686.346	-1
686.376	-15
686.406	-7
686.436	-1
686.466	-6
686.496	11
686.525	6
686.555	7
686.585	19
686.615	29
686.645	17
686.675	-1
686.704	9
686.734	8
686.764	1
686.794	10
686.824	-5
686.853	7
686.883	30
686.913	23
686.943	-4
686.973	-9
687.002	6
687.032	3
687.062	-9
687.092	11
687.121	0
687.151	-1
687.181	8
687.211	23
687.24	9
687.27	-11
687.3	-12
687.33	1
687.359	-11
687.389	5
687.419	11
687.449	7
687.478	12
687.508	9
687.538	18
687.568	14
687.597	-12
687.627	-14
687.657	-13
687.686	13
687.716	16
687.746	3
687.776	2
687.805	2
687.835	10
687.865	26
687.894	11
687.924	5
687.954	6
687.983	30
688.013	1
688.043	19
688.072	14
688.102	19
688.132	-3
688.161	-8
688.191	7
688.221	18
688.25	-8
688.28	19
688.31	17
688.339	11
688.369	-23
688.399	2
688.428	1
688.458	4
688.488	6
688.517	-9
688.547	1
688.576	30
688.606	17
688.636	6
688.665	20
688.695	-6
688.725	20
688.754	18
688.784	6
688.813	6
688.843	1
688.873	1
688.902	6
688.932	-2
688.961	3
688.991	6
689.02	7
689.05	5
689.08	12
689.109	5
689.139	8
689.168	3
689.198	-11
689.227	3
689.257	-1
689.287	18
689.316	7
689.346	-9
689.375	-10
689.405	8
689.434	1
689.464	11
689.493	-2
689.523	-11
689.552	-6
689.582	0
689.611	7
689.641	7
689.67	3
689.7	10
689.73	20
689.759	0
689.789	17
689.818	2
689.848	2
689.877	18
689.906	-3
689.936	-2
689.965	8
689.995	0
690.024	1
690.054	-4
690.083	10
690.113	-4
690.142	-10
690.172	5
690.201	15
690.231	5
690.26	36
690.29	14
690.319	0
690.348	11
690.378	6
690.407	14
690.437	17
690.466	10
690.496	3
690.525	9
690.555	-1
690.584	-11
690.613	8
690.643	13
690.672	-2
690.702	1
690.731	4
690.76	7
690.79	56
690.819	56
690.849	46
690.878	32
690.907	33
690.937	25
690.966	25
690.996	16
691.025	-8
691.054	14
691.084	11
691.113	13
691.142	20
691.172	9
691.201	4
691.23	5
691.26	5
691.289	9
691.319	9
691.348	9
691.377	21
691.407	9
691.436	4
691.465	6
691.495	3
691.524	1
691.553	14
691.583	11
691.612	30
691.641	13
691.67	-7
691.7	5
691.729	-12
691.758	3
691.788	8
691.817	10
691.846	-1
691.876	-3
691.905	-7
691.934	4
691.963	19
691.993	4
692.022	-6
692.051	-4
692.081	3
692.11	23
692.139	-3
692.168	20
692.198	26
692.227	17
692.256	2
692.285	3
692.315	14
692.344	-1
692.373	6
692.402	-9
692.432	-10
692.461	0
692.49	24
692.519	0
692.548	23
692.578	19
692.607	0
692.636	-6
692.665	15
692.694	5
692.724	2
692.753	11
692.782	14
692.811	-20
692.84	8
692.87	-1
692.899	-1
692.928	-2
692.957	4
692.986	7
693.016	14
693.045	17
693.074	13
693.103	0
693.132	14
693.161	8
693.191	0
693.22	-6
693.249	-3
693.278	-5
693.307	-3
693.336	-4
693.365	-14
693.395	4
693.424	6
693.453	2
693.482	-7
693.511	12
693.54	9
693.569	18
693.598	0
693.628	8
693.657	15
693.686	15
693.715	2
693.744	23
693.773	16
693.802	5
693.831	2
693.86	16
693.889	0
693.919	13
693.948	4
693.977	5
694.006	9
694.035	26
694.064	11
694.093	1
694.122	3
694.151	-7
694.18	2
694.209	40
694.238	-10
694.267	23
694.296	10
694.325	13
694.354	29
694.383	13
694.412	1
694.441	-5
694.471	-14
694.5	-13
694.529	6
694.558	8
694.587	16
694.616	3
694.645	12
694.674	28
694.703	19
694.732	2
694.761	14
694.79	11
694.819	-6
694.848	-8
694.877	7
694.906	22
694.935	21
694.963	27
694.992	1
695.021	7
695.05	16
695.079	-1
695.108	0
695.137	18
695.166	9
695.195	-1
695.224	19
695.253	15
695.282	5
695.311	2
695.34	5
695.369	18
695.398	7
695.427	33
695.456	5
695.485	8
695.513	3
695.542	17
695.571	14
695.6	14
695.629	-9
695.658	21
695.687	-4
695.716	2
695.745	19
695.774	10
695.802	-6
695.831	18
695.86	17
695.889	18
695.918	13
695.947	6
695.976	4
696.005	9
696.033	20
696.062	19
696.091	-1
696.12	-3
696.149	25
696.178	7
696.207	22
696.235	2
696.264	23
696.293	8
696.322	17
696.351	22
696.38	0
696.408	-1
696.437	-6
696.466	10
696.495	19
696.524	15
696.553	11
696.581	6
696.61	13
696.639	18
696.668	3
696.697	16
696.725	15
696.754	15
696.783	6
696.812	8
696.84	4
696.869	10
696.898	12
696.927	-7
696.956	36
696.984	-7
697.013	9
697.042	3
697.071	17
697.099	14
697.128	3
697.157	9
697.186	9
697.214	21
697.243	12
697.272	-2
697.301	8
697.329	0
697.358	10
697.387	25
697.415	15
697.444	7
697.473	-3
697.502	17
697.53	20
697.559	0
697.588	-4
697.616	-1
697.645	-5
697.674	20
697.703	5
697.731	15
697.76	5
697.789	-6
697.817	13
697.846	22
697.875	9
697.903	23
697.932	17
697.961	8
697.989	13
698.018	-1
698.047	12
698.075	16
698.104	9
698.133	4
698.161	-2
698.19	3
698.218	-15
698.247	8
698.276	3
698.304	11
698.333	14
698.362	9
698.39	2
698.419	4
698.447	-2
698.476	1
698.505	2
698.533	4
698.562	-11
698.591	-14
698.619	6
698.648	-2
698.676	10
698.705	8
698.733	1
698.762	21
698.791	3
698.819	5
698.848	-4
698.876	6
698.905	7
698.933	14
698.962	16
698.991	1
699.019	18
699.048	-14
699.076	15
699.105	-8
699.133	9
699.162	3
699.19	28
699.219	13
699.248	-6
699.276	5
699.305	1
699.333	22
699.362	-1
699.39	16
699.419	0
699.447	5
699.476	3
699.504	6
699.533	8
699.561	-8
699.59	14
699.618	0
699.647	-1
699.675	18
699.704	13
699.732	-1
699.761	0
699.789	5
699.818	9
699.846	6
699.874	-1
699.903	-3
699.931	-1
699.96	11
699.988	7
700.017	7
700.045	6
700.074	1
700.102	7
700.13	-2
700.159	3
700.187	10
700.216	-1
700.244	-6
700.273	-2
700.301	-8
700.329	-16
700.358	13
700.386	9
700.415	12
700.443	3
700.472	7
700.5	-1
700.528	27
700.557	13
700.585	-1
700.614	2
700.642	26
700.67	18
700.699	6
700.727	2
700.755	-10
700.784	5
700.812	-1
700.841	6
700.869	4
700.897	-22
700.926	8
700.954	3
700.982	12
701.011	9
701.039	12
701.067	-1
701.096	18
701.124	-1
701.152	2
701.181	-7
701.209	-8
701.237	-1
701.266	-2
701.294	-6
701.322	8
701.351	19
701.379	4
701.407	-10
701.435	-2
701.464	11
701.492	21
701.52	-8
701.549	4
701.577	-7
701.605	4
701.634	1
701.662	11
701.69	-20
701.718	0
701.747	6
701.775	-2
701.803	-10
701.831	18
701.86	3
701.888	3
701.916	9
701.944	1
701.973	-9
702.001	2
702.029	-3
702.057	2
702.086	-7
702.114	-14
702.142	-5
702.17	1
702.199	10
702.227	-9
702.255	-2
702.283	-9
702.311	10
702.34	-7
702.368	-19
702.396	2
702.424	4
702.452	-1
702.481	-7
702.509	19
702.537	21
702.565	4
702.593	-2
702.621	-6
702.65	6
702.678	9
702.706	-1
702.734	-11
702.762	-3
702.79	-2
702.819	9
702.847	3
702.875	9
702.903	6
702.931	-12
702.959	-5
702.988	5
703.016	-10
703.044	-3
703.072	6
703.1	3
703.128	-2
703.156	1
703.184	1
703.212	-6
703.241	-2
703.269	5
703.297	2
703.325	14
703.353	-21
703.381	-4
703.409	2
703.437	-9
703.465	-3
703.493	-11
703.522	15
703.55	12
703.578	19
703.606	-7
703.634	-8
703.662	-14
703.69	-2
703.718	13
703.746	10
703.774	2
703.802	17
703.83	-2
703.858	-2
703.886	3
703.914	-2
703.942	4
703.97	12
703.998	-16
704.027	23
704.055	8
704.083	6
704.111	0
704.139	23
704.167	-1
704.195	4
704.223	7
704.251	0
704.279	-12
704.307	6
704.335	-7
704.363	-1
704.391	-10
704.419	-11
704.447	-9
704.475	18
704.503	-11
704.531	18
704.558	-5
704.586	2
704.614	3
704.642	2
704.67	-4
704.698	-3
704.726	-1
704.754	-2
704.782	-4
704.81	8
704.838	10
704.866	-1
704.894	-10
704.922	0
704.95	1
704.978	7
705.006	3
705.034	7
705.061	-6
705.089	7
705.117	-5
705.145	6
705.173	2
705.201	-1
705.229	9
705.257	7
705.285	-5
705.313	2
705.34	9
705.368	2
705.396	-2
705.424	4
705.452	-5
705.48	3
705.508	3
705.536	-8
705.563	7
705.591	7
705.619	8
705.647	-22
705.675	-6
705.703	5
705.731	-2
705.758	11
705.786	4
705.814	20
705.842	6
705.87	5
705.898	3
705.925	0
705.953	14
705.981	-5
706.009	4
706.037	-2
706.065	-7
706.092	-6
706.12	6
706.148	-18
706.176	-4
706.204	9
706.231	0
706.259	-9
706.287	-3
706.315	3
706.342	-8
706.37	5
706.398	-2
706.426	4
706.454	7
706.481	7
706.509	-8
706.537	-5
706.565	5
706.592	12
706.62	3
706.648	-7
706.676	-4
706.703	-3
706.731	8
706.759	-1
706.787	9
706.814	1
706.842	-1
706.87	6
706.897	-3
706.925	-1
706.953	11
706.981	17
707.008	7
707.036	3
707.064	7
707.091	-1
707.119	15
707.147	5
707.174	-7
707.202	4
707.23	-5
707.258	1
707.285	-6
707.313	-4
707.341	-23
707.368	-6
707.396	-3
707.424	17
707.451	-11
707.479	5
707.507	7
707.534	-1
707.562	0
707.59	-5
707.617	-15
707.645	-14
707.672	-5
707.7	3
707.728	15
707.755	-8
707.783	-2
707.811	7
707.838	-3
707.866	5
707.893	4
707.921	-10
707.949	-7
707.976	18
708.004	-4
708.031	4
708.059	1
708.087	3
708.114	-7
708.142	-19
708.169	-12
708.197	-8
708.225	1
708.252	8
708.28	11
708.307	10
708.335	2
708.362	-5
708.39	-16
708.418	-13
708.445	-7
708.473	-6
708.5	-7
708.528	-8
708.555	-14
708.583	-3
708.61	-3
708.638	8
708.665	-14
708.693	-5
708.72	-10
708.748	9
708.776	13
708.803	12
708.831	13
708.858	22
708.886	0
708.913	-6
708.941	-9
708.968	11
708.996	5
709.023	32
709.051	-4
709.078	-6
709.105	5
709.133	4
709.16	1
709.188	4
709.215	-3
709.243	3
709.27	1
709.298	-9
709.325	-7
709.353	-8
709.38	17
709.408	12
709.435	13
709.462	-3
709.49	12
709.517	0
709.545	2
709.572	7
709.6	10
709.627	12
709.655	-8
709.682	-6
709.709	3
709.737	-2
709.764	-7
709.792	14
709.819	0
709.846	11
709.874	2
709.901	6
709.929	10
709.956	8
709.983	-7
710.011	-10
710.038	-15
710.066	9
710.093	9
710.12	-3
710.148	-10
710.175	-11
710.202	-18
710.23	3
710.257	8
710.284	5
710.312	-2
710.339	-2
710.366	4
710.394	-5
710.421	-6
710.448	9
710.476	-9
710.503	-8
710.53	13
710.558	24
710.585	33
710.612	14
710.64	-8
710.667	-10
710.694	-14
710.722	12
710.749	0
710.776	8
710.804	13
710.831	-5
710.858	-7
710.885	-1
710.913	1
710.94	7
710.967	12
710.995	10
711.022	1
711.049	9
711.076	-3
711.104	-4
711.131	-22
711.158	1
711.185	15
711.213	-18
711.24	-8
711.267	-8
711.294	5
711.322	3
711.349	-4
711.376	-5
711.403	13
711.431	14
711.458	11
711.485	-2
711.512	-4
711.54	-8
711.567	-10
711.594	5
711.621	1
711.648	13
711.676	-6
711.703	-1
711.73	-11
711.757	-6
711.784	-2
711.812	30
711.839	-3
711.866	-11
711.893	-15
711.92	2
711.947	0
711.975	12
712.002	-6
712.029	25
712.056	4
712.083	17
712.11	-5
712.138	-9
712.165	9
712.192	2
712.219	-1
712.246	-11
712.273	-4
712.3	-2
712.328	13
712.355	15
712.382	-13
712.409	6
712.436	-9
712.463	1
712.49	11
712.517	2
712.544	-8
712.572	-5
712.599	-3
712.626	5
712.653	-7
712.68	-1
712.707	0
712.734	17
712.761	5
712.788	17
712.815	7
712.842	13
712.87	-1
712.897	0
712.924	3
712.951	-5
712.978	5
713.005	6
713.032	9
713.059	4
713.086	-8
713.113	-13
713.14	-20
713.167	-16
713.194	-2
713.221	0
713.248	-7
713.275	-14
713.302	0
713.329	13
713.356	1
713.383	-11
713.41	9
713.437	0
713.464	2
713.491	20
713.518	-8
713.545	-10
713.572	-6
713.599	-2
713.626	9
713.653	6
713.68	-16
713.707	1
713.734	3
713.761	-9
713.788	-5
713.815	21
713.842	-5
713.869	-7
713.896	12
713.923	-9
713.95	-12
713.977	7
714.004	1
714.031	-10
714.058	-5
714.085	1
714.112	17
714.139	-3
714.165	6
714.192	1
714.219	4
714.246	4
714.273	5
714.3	2
714.327	-1
714.354	7
714.381	-2
714.408	9
714.435	-8
714.461	-8
714.488	8
714.515	6
714.542	7
714.569	-7
714.596	-8
714.623	-10
714.65	5
714.677	20
714.703	2
714.73	11
714.757	10
714.784	-1
714.811	8
714.838	19
714.865	1
714.891	6
714.918	1
714.945	-9
714.972	2
714.999	1
715.026	-11
715.052	8
715.079	5
715.106	-2
715.133	16
715.16	-4
715.187	-1
715.213	5
715.24	-5
715.267	1
715.294	4
715.321	0
715.347	-16
715.374	-6
715.401	-10
715.428	-9
715.455	-1
715.481	-1
715.508	1
715.535	-9
715.562	34
715.588	5
715.615	12
715.642	0
715.669	3
715.695	-2
715.722	8
715.749	17
715.776	5
715.802	1
715.829	18
715.856	-9
715.883	10
715.909	-3
715.936	-6
715.963	-3
715.99	-8
716.016	3
716.043	6
716.07	0
716.096	-17
716.123	0
716.15	4
716.177	12
716.203	23
716.23	9
716.257	0
716.283	-3
716.31	1
716.337	-6
716.363	5
716.39	0
716.417	24
716.443	9
716.47	22
716.497	22
716.523	3
716.55	10
716.577	9
716.603	4
716.63	-1
716.657	12
716.683	-3
716.71	9
716.737	-5
716.763	-6
716.79	2
716.817	4
716.843	3
716.87	-11
716.897	-14
716.923	16
716.95	2
716.976	-11
717.003	3
717.03	-8
717.056	-7
717.083	3
717.109	3
717.136	10
717.163	-2
717.189	3
717.216	1
717.242	-6
717.269	7
717.296	5
717.322	5
717.349	7
717.375	1
717.402	2
717.428	10
717.455	5
717.481	4
717.508	9
717.535	9
717.561	-5
717.588	-19
717.614	-2
717.641	11
717.667	6
717.694	-8
717.72	-1
717.747	-2
717.773	-19
717.8	13
717.826	2
717.853	15
717.88	6
717.906	4
717.933	-4
717.959	19
717.986	12
718.012	-1
718.039	11
718.065	13
718.092	19
718.118	-10
718.144	-19
718.171	13
718.197	18
718.224	8
718.25	4
718.277	5
718.303	17
718.33	5
718.356	-3
718.383	-13
718.409	-4
718.436	0
718.462	0
718.489	-2
718.515	20
718.541	11
718.568	15
718.594	6
718.621	8
718.647	3
718.674	-1
718.7	11
718.726	-4
718.753	-3
718.779	9
718.806	2
718.832	-5
718.858	-8
718.885	-9
718.911	21
718.938	0
718.964	-2
718.99	-3
719.017	-11
719.043	-1
719.07	24
719.096	1
719.122	10
719.149	-6
719.175	10
719.201	4
719.228	-8
719.254	0
719.281	8
719.307	-6
719.333	-3
719.36	10
719.386	-2
719.412	11
719.439	1
719.465	7
719.491	-8
719.518	10
719.544	-10
719.57	7
719.597	-1
719.623	-7
719.649	-3
719.675	6
719.702	3
719.728	11
719.754	1
719.781	-9
719.807	-4
719.833	-7
719.86	-1
719.886	-8
719.912	11
719.938	-15
719.965	16
719.991	9
720.017	12
720.044	9
720.07	12
720.096	14
720.122	6
720.149	-10
720.175	30
720.201	-1
720.227	15
720.254	2
720.28	8
720.306	-2
720.332	15
720.359	17
720.385	13
720.411	7
720.437	5
720.463	-13
720.49	-3
720.516	-3
720.542	-1
720.568	-1
720.595	10
720.621	4
720.647	12
720.673	17
720.699	-5
720.725	8
720.752	17
720.778	17
720.804	6
720.83	6
720.856	2
720.883	0
720.909	0
720.935	3
720.961	22
720.987	-1
721.013	1
721.04	-6
721.066	-6
721.092	10
721.118	5
721.144	11
721.17	-15
721.196	6
721.223	0
721.249	7
721.275	19
721.301	7
721.327	5
721.353	15
721.379	8
721.405	9
721.432	16
721.458	1
721.484	2
721.51	1
721.536	10
721.562	15
721.588	6
721.614	-3
721.64	10
721.666	4
721.693	1
721.719	10
721.745	-8
721.771	6
721.797	-1
721.823	-1
721.849	21
721.875	8
721.901	6
721.927	-12
721.953	-5
721.979	29
722.005	22
722.031	6
722.057	-2
722.083	8
722.109	26
722.135	17
722.161	14
722.187	1
722.214	8
722.24	2
722.266	0
722.292	10
722.318	8
722.344	9
722.37	7
722.396	1
722.422	7
722.448	12
722.474	-10
722.5	25
722.526	1
722.552	-4
722.578	2
722.603	-7
722.629	-17
722.655	11
722.681	-10
722.707	-5
722.733	-2
722.759	-8
722.785	6
722.811	-5
722.837	-3
722.863	3
722.889	11
722.915	5
722.941	5
722.967	9
722.993	9
723.019	12
723.045	9
723.071	-1
723.097	2
723.122	1
723.148	0
723.174	-6
723.2	12
723.226	3
723.252	-10
723.278	-3
723.304	-17
723.33	4
723.356	-9
723.381	-6
723.407	-7
723.433	7
723.459	0
723.485	10
723.511	13
723.537	-9
723.563	6
723.588	11
723.614	5
723.64	1
723.666	-13
723.692	-1
723.718	-2
723.744	7
723.769	5
723.795	-12
723.821	10
723.847	5
723.873	0
723.899	5
723.924	-8
723.95	10
723.976	-20
724.002	-5
724.028	5
724.053	-1
724.079	0
724.105	15
724.131	-4
724.157	-9
724.182	8
724.208	2
724.234	4
724.26	8
724.286	15
724.311	-7
724.337	-7
724.363	-10
724.389	10
724.415	6
724.44	36
724.466	9
724.492	-2
724.518	18
724.543	-3
724.569	-12
724.595	-3
724.621	-2
724.646	5
724.672	-19
724.698	2
724.723	2
724.749	3
724.775	0
724.801	4
724.826	-5
724.852	0
724.878	-8
724.904	-16
724.929	10
724.955	-14
724.981	3
725.006	-1
725.032	8
725.058	16
725.083	2
725.109	-9
725.135	7
725.161	7
725.186	18
725.212	2
725.238	22
725.263	9
725.289	-8
725.315	-18
725.34	-15
725.366	9
725.392	-5
725.417	-7
725.443	-1
725.468	18
725.494	0
725.52	3
725.545	5
725.571	-10
725.597	-6
725.622	-5
725.648	4
725.674	10
725.699	8
725.725	5
725.75	17
725.776	-1
725.802	-8
725.827	11
725.853	6
725.878	6
725.904	8
725.93	-5
725.955	-5
725.981	-4
726.006	-3
726.032	21
726.057	0
726.083	-15
726.109	-1
726.134	2
726.16	2
726.185	5
726.211	5
726.236	6
726.262	9
726.288	5
726.313	4
726.339	6
726.364	-13
726.39	6
726.415	-3
726.441	-4
726.466	-7
726.492	-5
726.517	7
726.543	2
726.568	-5
726.594	-1
726.619	18
726.645	15
726.67	4
726.696	6
726.721	0
726.747	-12
726.772	14
726.798	1
726.823	3
726.849	-6
726.874	2
726.9	31
726.925	0
726.951	-4
726.976	16
727.002	-5
727.027	2
727.053	5
727.078	-11
727.104	-1
727.129	-18
727.155	-9
727.18	2
727.205	-4
727.231	-1
727.256	0
727.282	2
727.307	22
727.333	-6
727.358	1
727.383	-15
727.409	-10
727.434	23
727.46	-8
727.485	-6
727.511	-2
727.536	-9
727.561	-6
727.587	6
727.612	6
727.637	3
727.663	-10
727.688	10
727.714	1
727.739	-10
727.764	1
727.79	17
727.815	10
727.841	7
727.866	-11
727.891	-6
727.917	-11
727.942	0
727.967	5
727.993	-24
728.018	-24
728.043	-6
728.069	6
728.094	1
728.119	-3
728.145	4
728.17	-2
728.195	21
728.221	17
728.246	-5
728.271	-10
728.297	-3
728.322	0
728.347	-5
728.373	9
728.398	9
728.423	20
728.448	6
728.474	-2
728.499	8
728.524	-11
728.55	1
728.575	-5
728.6	-2
728.625	0
728.651	15
728.676	6
728.701	2
728.727	0
728.752	-5
728.777	7
728.802	5
728.828	5
728.853	8
728.878	11
728.903	7
728.929	-11
728.954	3
728.979	23
729.004	-16
729.03	-7
729.055	9
729.08	-2
729.105	-1
729.13	18
729.156	19
729.181	-10
729.206	-9
729.231	-8
729.256	14
729.282	-8
729.307	-17
729.332	-6
729.357	-5
729.382	-10
729.408	-7
729.433	3
729.458	-6
729.483	22
729.508	10
729.533	-2
729.559	-6
729.584	6
729.609	5
729.634	12
729.659	-13
729.684	-2
729.71	10
729.735	1
729.76	3
729.785	-5
729.81	1
729.835	-6
729.86	5
729.886	17
729.911	12
729.936	-8
729.961	19
729.986	24
730.011	54
730.036	229
730.061	1022
730.086	2754
730.112	3486
730.137	2922
730.162	2163
730.187	1688
730.212	1269
730.237	789
730.262	469
730.287	251
730.312	150
730.337	82
730.362	71
730.387	54
730.413	31
730.438	25
730.463	18
730.488	2
730.513	6
730.538	6
730.563	27
730.588	29
730.613	13
730.638	2
730.663	8
730.688	31
730.713	4
730.738	-7
730.763	4
730.788	-2
730.813	6
730.838	16
730.863	-8
730.888	7
730.913	-5
730.938	-6
730.963	23
730.988	113
731.013	419
731.038	625
731.063	622
731.088	456
731.113	355
731.138	267
731.163	185
731.188	117
731.213	75
731.238	54
731.263	12
731.288	13
731.313	13
731.338	6
731.363	16
731.388	2
731.413	-1
731.438	21
731.463	13
731.487	12
731.512	-3
731.537	-12
731.562	3
731.587	4
731.612	6
731.637	-4
731.662	-11
731.687	4
731.712	-13
731.737	23
731.762	-4
731.786	0
731.811	-8
731.836	8
731.861	1
731.886	6
731.911	4
731.936	13
731.961	-2
731.986	-5
732.01	-3
732.035	3
732.06	1
732.085	6
732.11	1
732.135	-18
732.16	6
732.184	16
732.209	-3
732.234	17
732.259	-5
732.284	5
732.309	-8
732.334	-19
732.358	-16
732.383	-18
732.408	-7
732.433	-14
732.458	-3
732.482	-1
732.507	10
732.532	-1
732.557	6
732.582	14
732.607	28
732.631	47
732.656	80
732.681	143
732.706	341
732.73	446
732.755	402
732.78	306
732.805	243
732.83	171
732.854	144
732.879	93
732.904	35
732.929	29
732.953	27
732.978	22
733.003	5
733.028	6
733.052	11
733.077	5
733.102	-2
733.127	2
733.151	12
733.176	7
733.201	-9
733.226	-8
733.25	-15
733.275	-2
733.3	13
733.324	22
733.349	7
733.374	15
733.399	0
733.423	-1
733.448	-2
733.473	-9
733.497	-4
733.522	-14
733.547	4
733.571	8
733.596	2
733.621	7
733.646	10
733.67	5
733.695	10
733.72	11
733.744	0
733.769	11
733.794	17
733.818	13
733.843	-10
733.867	-6
733.892	-20
733.917	5
733.941	7
733.966	12
733.991	2
734.015	18
734.04	2
734.065	3
734.089	11
734.114	4
734.138	15
734.163	-2
734.188	-1
734.212	17
734.237	9
734.261	6
734.286	6
734.311	3
734.335	5
734.36	-12
734.384	2
734.409	17
734.434	-1
734.458	6
734.483	-3
734.507	-11
734.532	-10
734.556	-2
734.581	-1
734.606	-4
734.63	-17
734.655	9
734.679	5
734.704	6
734.728	-2
734.753	-7
734.777	3
734.802	3
734.826	9
734.851	9
734.876	12
734.9	17
734.925	13
734.949	11
734.974	-5
734.998	11
735.023	-2
735.047	-7
735.072	11
735.096	-4
735.121	-1
735.145	-8
735.17	-7
735.194	5
735.219	-5
735.243	-4
735.268	15
735.292	11
735.317	16
735.341	11
735.365	5
735.39	-6
735.414	-21
735.439	11
735.463	-7
735.488	7
735.512	3
735.537	-5
735.561	-4
735.586	5
735.61	-2
735.634	-17
735.659	5
735.683	22
735.708	7
735.732	9
735.757	-10
735.781	-2
735.805	4
735.83	-16
735.854	-7
735.879	-7
735.903	7
735.927	3
735.952	-5
735.976	8
736.001	-1
736.025	-11
736.049	8
736.074	1
736.098	-2
736.123	8
736.147	-3
736.171	2
736.196	-2
736.22	-7
736.244	-9
736.269	1
736.293	-8
736.317	1
736.342	14
736.366	22
736.39	17
736.415	5
736.439	11
736.463	29
736.488	5
736.512	13
736.536	-1
736.561	24
736.585	5
736.609	13
736.634	-10
736.658	-6
736.682	-3
736.707	-8
736.731	-5
736.755	2
736.78	16
736.804	22
736.828	20
736.852	0
736.877	-10
736.901	10
736.925	1
736.949	9
736.974	9
736.998	-13
737.022	-2
737.047	11
737.071	1
737.095	4
737.119	15
737.144	12
737.168	-8
737.192	-15
737.216	10
737.241	-6
737.265	10
737.289	7
737.313	2
737.337	10
737.362	5
737.386	-7
737.41	-2
737.434	5
737.459	8
737.483	15
737.507	25
737.531	9
737.555	-12
737.58	22
737.604	8
737.628	4
737.652	2
737.676	-15
737.701	19
737.725	2
737.749	4
737.773	13
737.797	6
737.821	16
737.846	2
737.87	21
737.894	4
737.918	5
737.942	0
737.966	23
737.99	16
738.015	11
738.039	14
738.063	-2
738.087	16
738.111	-3
738.135	10
738.159	-2
738.184	12
738.208	20
738.232	-4
738.256	21
738.28	20
738.304	10
738.328	6
738.352	5
738.376	5
738.4	-2
738.425	11
738.449	-10
738.473	1
738.497	15
738.521	5
738.545	8
738.569	8
738.593	7
738.617	5
738.641	1
738.665	2
738.689	9
738.713	-5
738.737	-7
738.762	9
738.786	-8
738.81	-6
738.834	11
738.858	13
738.882	10
738.906	-7
738.93	2
738.954	10
738.978	-2
739.002	5
739.026	20
739.05	10
739.074	3
739.098	34
739.122	15
739.146	25
739.17	20
739.194	6
739.218	-1
739.242	-7
739.266	-3
739.29	12
739.314	22
739.338	2
739.362	2
739.386	-4
739.41	-6
739.434	4
739.458	0
739.482	9
739.506	6
739.53	-3
739.554	25
739.577	12
739.601	17
739.625	-4
739.649	7
739.673	5
739.697	11
739.721	-1
739.745	11
739.769	29
739.793	22
739.817	34
739.841	-11
739.865	3
739.889	5
739.912	17
739.936	9
739.96	3
739.984	19
740.008	-4
740.032	11
740.056	13
740.08	7
740.104	15
740.127	19
740.151	8
740.175	1
740.199	5
740.223	41
740.247	22
740.271	9
740.295	-12
740.318	-25
740.342	-10
740.366	5
740.39	14
740.414	1
740.438	0
740.461	17
740.485	-8
740.509	-7
740.533	4
740.557	-7
740.581	2
740.604	-3
740.628	-3
740.652	1
740.676	-2
740.7	17
740.723	13
740.747	-8
740.771	5
740.795	9
740.819	11
740.842	-4
740.866	-4
740.89	4
740.914	-10
740.938	1
740.961	14
740.985	-6
741.009	-1
741.033	13
741.056	1
741.08	-4
741.104	7
741.128	11
741.151	10
741.175	-20
741.199	2
741.223	27
741.246	2
741.27	11
741.294	8
741.318	10
741.341	11
741.365	-6
741.389	-10
741.413	12
741.436	28
741.46	14
741.484	4
741.507	-3
741.531	24
741.555	18
741.579	6
741.602	-2
741.626	10
741.65	17
741.673	21
741.697	15
741.721	11
741.744	-22
741.768	-2
741.792	6
741.815	-3
741.839	17
741.863	13
741.886	14
741.91	2
741.934	-5
741.957	-7
741.981	11
742.005	10
742.028	-15
742.052	4
742.075	8
742.099	25
742.123	7
742.146	3
742.17	2
742.194	3
742.217	-16
742.241	-14
742.264	-5
742.288	9
742.312	-9
742.335	-5
742.359	12
742.382	11
742.406	11
742.43	-7
742.453	-1
742.477	-5
742.5	14
742.524	-12
742.548	-6
742.571	-5
742.595	-1
742.618	2
742.642	-2
742.665	11
742.689	-6
742.712	9
742.736	4
742.76	6
742.783	8
742.807	10
742.83	11
742.854	-13
742.877	-3
742.901	14
742.924	11
742.948	-5
742.971	-10
742.995	-3
743.018	-9
743.042	-3
743.065	-3
743.089	-11
743.112	-1
743.136	3
743.159	10
743.183	-7
743.206	9
743.23	-3
743.253	9
743.277	25
743.3	-9
743.324	8
743.347	4
743.371	15
743.394	-1
743.418	27
743.441	6
743.465	5
743.488	14
743.512	-13
743.535	-7
743.558	-3
743.582	-8
743.605	2
743.629	10
743.652	2
743.676	-3
743.699	18
743.723	6
743.746	-3
743.769	-7
743.793	2
743.816	2
743.84	11
743.863	8
743.886	17
743.91	3
743.933	4
743.957	-2
743.98	-1
744.003	-2
744.027	2
744.05	4
744.074	15
744.097	-18
744.12	1
744.144	-8
744.167	10
744.19	2
744.214	-17
744.237	7
744.26	12
744.284	-1
744.307	-11
744.331	9
744.354	-15
744.377	-2
744.401	1
744.424	-1
744.447	-6
744.471	-6
