Data from HighRes_mercury_15_13_11_07_2024_HR4C61891__5__15-14-23-686.txt Node

Date: Thu Nov 07 15:14:23 EST 2024
User: crc00042
Spectrometer: HR4C6189
Trigger mode: 4
Integration Time (sec): 1.000000E-1
Scans to average: 1
Electric dark correction enabled: true
Nonlinearity correction enabled: false
Boxcar width: 0
XAxis mode: Wavelengths
Number of Pixels in Spectrum: 3648
>>>>>Begin Spectral Data<<<<<
639.567	-66
639.602	-66
639.636	-66
639.67	-45
639.704	-11
639.738	3
639.773	9
639.807	-26
639.841	7
639.875	5
639.909	-7
639.943	-11
639.978	-14
640.012	1
640.046	16
640.08	23
640.114	-2
640.148	-4
640.182	5
640.217	-3
640.251	25
640.285	10
640.319	0
640.353	-1
640.387	-3
640.421	-12
640.455	-5
640.49	1
640.524	3
640.558	2
640.592	-9
640.626	7
640.66	4
640.694	-12
640.728	4
640.762	11
640.796	4
640.83	20
640.865	10
640.899	4
640.933	-4
640.967	-3
641.001	3
641.035	-4
641.069	6
641.103	-16
641.137	-10
641.171	-18
641.205	5
641.239	9
641.273	20
641.307	9
641.341	-1
641.375	-1
641.409	-11
641.443	-4
641.477	18
641.511	1
641.545	12
641.579	10
641.614	-11
641.648	-5
641.682	-1
641.716	-8
641.75	-1
641.784	13
641.818	8
641.852	5
641.886	-8
641.919	31
641.953	-3
641.987	-20
642.021	-8
642.055	9
642.089	5
642.123	-22
642.157	-19
642.191	-5
642.225	3
642.259	4
642.293	12
642.327	-22
642.361	-4
642.395	16
642.429	19
642.463	8
642.497	16
642.531	1
642.565	-16
642.599	4
642.633	-11
642.666	5
642.7	9
642.734	9
642.768	-22
642.802	-1
642.836	2
642.87	-15
642.904	14
642.938	20
642.972	3
643.005	-15
643.039	14
643.073	1
643.107	12
643.141	1
643.175	-2
643.209	0
643.243	5
643.276	-7
643.31	-2
643.344	-3
643.378	3
643.412	6
643.446	2
643.48	7
643.513	5
643.547	6
643.581	-5
643.615	8
643.649	-2
643.683	6
643.716	17
643.75	14
643.784	-12
643.818	3
643.852	-4
643.886	1
643.919	4
643.953	0
643.987	-22
644.021	1
644.055	12
644.088	-5
644.122	-10
644.156	4
644.19	8
644.224	1
644.257	8
644.291	18
644.325	11
644.359	-2
644.392	20
644.426	10
644.46	9
644.494	-15
644.527	-1
644.561	-1
644.595	8
644.629	-10
644.662	-8
644.696	15
644.73	-5
644.764	6
644.797	-11
644.831	7
644.865	16
644.899	-1
644.932	7
644.966	10
645	8
645.033	17
645.067	-1
645.101	-3
645.135	8
645.168	2
645.202	-9
645.236	-3
645.269	7
645.303	-4
645.337	-10
645.37	-14
645.404	4
645.438	-1
645.471	9
645.505	3
645.539	-4
645.572	-13
645.606	-13
645.64	-2
645.673	2
645.707	15
645.741	-3
645.774	-2
645.808	7
645.842	1
645.875	13
645.909	-19
645.943	-3
645.976	-4
646.01	15
646.043	17
646.077	19
646.111	10
646.144	17
646.178	19
646.212	-17
646.245	-2
646.279	16
646.312	2
646.346	14
646.38	-11
646.413	4
646.447	2
646.48	10
646.514	20
646.547	-5
646.581	-1
646.615	-3
646.648	-10
646.682	1
646.715	-15
646.749	0
646.782	-16
646.816	-5
646.85	-6
646.883	-8
646.917	5
646.95	-11
646.984	13
647.017	1
647.051	6
647.084	1
647.118	0
647.151	-9
647.185	14
647.218	-4
647.252	16
647.285	-2
647.319	-7
647.353	-4
647.386	12
647.42	0
647.453	4
647.487	-9
647.52	-4
647.553	5
647.587	1
647.62	6
647.654	-10
647.687	17
647.721	6
647.754	-2
647.788	0
647.821	-14
647.855	9
647.888	5
647.922	12
647.955	9
647.989	17
648.022	-4
648.055	10
648.089	6
648.122	25
648.156	-7
648.189	12
648.223	9
648.256	11
648.29	8
648.323	9
648.356	1
648.39	2
648.423	-1
648.457	3
648.49	10
648.523	17
648.557	3
648.59	4
648.624	0
648.657	-9
648.69	16
648.724	21
648.757	21
648.791	18
648.824	13
648.857	11
648.891	-7
648.924	2
648.957	10
648.991	0
649.024	1
649.057	-8
649.091	9
649.124	15
649.158	2
649.191	21
649.224	8
649.258	6
649.291	-3
649.324	1
649.358	4
649.391	8
649.424	-17
649.458	-13
649.491	-10
649.524	-9
649.557	-14
649.591	-16
649.624	9
649.657	-10
649.691	1
649.724	-1
649.757	11
649.791	-4
649.824	15
649.857	13
649.89	-1
649.924	1
649.957	-11
649.99	-22
650.023	-10
650.057	-10
650.09	-2
650.123	-6
650.157	25
650.19	7
650.223	-18
650.256	-20
650.29	-6
650.323	4
650.356	5
650.389	5
650.423	-10
650.456	10
650.489	8
650.522	15
650.555	21
650.589	6
650.622	-3
650.655	3
650.688	1
650.721	-4
650.755	-8
650.788	5
650.821	2
650.854	11
650.887	16
650.921	-1
650.954	-23
650.987	6
651.02	-2
651.053	-3
651.087	-10
651.12	9
651.153	22
651.186	6
651.219	-3
651.252	8
651.286	15
651.319	2
651.352	4
651.385	9
651.418	13
651.451	9
651.484	4
651.518	-8
651.551	17
651.584	-13
651.617	22
651.65	9
651.683	22
651.716	-13
651.749	-4
651.783	-2
651.816	-1
651.849	8
651.882	17
651.915	7
651.948	11
651.981	-7
652.014	-14
652.047	-15
652.08	-19
652.114	24
652.147	5
652.18	23
652.213	26
652.246	1
652.279	-5
652.312	-2
652.345	-22
652.378	2
652.411	14
652.444	-5
652.477	-9
652.51	-10
652.543	-18
652.576	-3
652.609	-11
652.642	2
652.675	21
652.709	5
652.742	9
652.775	8
652.808	5
652.841	5
652.874	-1
652.907	8
652.94	-1
652.973	-9
653.006	16
653.039	16
653.072	5
653.105	-15
653.138	-15
653.171	-20
653.204	7
653.237	-5
653.27	3
653.303	13
653.336	17
653.368	2
653.401	7
653.434	-7
653.467	-1
653.5	-14
653.533	-6
653.566	-11
653.599	-18
653.632	-13
653.665	-2
653.698	-13
653.731	-1
653.764	1
653.797	3
653.83	6
653.863	-2
653.896	7
653.929	4
653.961	12
653.994	-9
654.027	0
654.06	15
654.093	-1
654.126	0
654.159	-15
654.192	6
654.225	-4
654.258	-12
654.29	3
654.323	-7
654.356	-5
654.389	1
654.422	-4
654.455	5
654.488	11
654.521	-19
654.553	-18
654.586	-1
654.619	1
654.652	-13
654.685	-6
654.718	4
654.751	-2
654.783	15
654.816	17
654.849	10
654.882	-7
654.915	-8
654.948	2
654.98	12
655.013	-9
655.046	-11
655.079	-9
655.112	-2
655.144	-20
655.177	6
655.21	12
655.243	19
655.276	1
655.308	-15
655.341	-26
655.374	-15
655.407	-5
655.44	4
655.472	5
655.505	22
655.538	-3
655.571	9
655.603	-20
655.636	4
655.669	-5
655.702	-4
655.734	-23
655.767	10
655.8	5
655.833	-9
655.865	1
655.898	9
655.931	-9
655.964	28
655.996	-6
656.029	7
656.062	6
656.095	-9
656.127	-18
656.16	11
656.193	11
656.225	12
656.258	7
656.291	11
656.324	-14
656.356	10
656.389	15
656.422	25
656.454	-11
656.487	6
656.52	-4
656.552	0
656.585	2
656.618	-6
656.65	14
656.683	-5
656.716	12
656.748	7
656.781	9
656.814	-5
656.846	5
656.879	-8
656.912	-13
656.944	-15
656.977	-14
657.01	8
657.042	5
657.075	8
657.108	-7
657.14	3
657.173	18
657.205	19
657.238	12
657.271	-7
657.303	-12
657.336	-5
657.369	1
657.401	-7
657.434	-1
657.466	0
657.499	-9
657.532	-13
657.564	10
657.597	0
657.629	2
657.662	1
657.694	-5
657.727	-18
657.76	10
657.792	-7
657.825	-11
657.857	-17
657.89	-19
657.922	6
657.955	-27
657.987	-6
658.02	15
658.053	-8
658.085	-6
658.118	9
658.15	2
658.183	28
658.215	-3
658.248	-7
658.28	1
658.313	6
658.345	1
658.378	-3
658.41	3
658.443	0
658.475	-2
658.508	-4
658.54	1
658.573	-24
658.605	-1
658.638	-1
658.67	-5
658.703	15
658.735	-9
658.768	-5
658.8	-12
658.833	13
658.865	-3
658.898	0
658.93	-2
658.963	12
658.995	-6
659.028	0
659.06	16
659.092	-1
659.125	-13
659.157	-1
659.19	-14
659.222	-19
659.255	1
659.287	-1
659.32	-1
659.352	-10
659.384	6
659.417	10
659.449	-5
659.482	1
659.514	-3
659.546	6
659.579	2
659.611	0
659.644	12
659.676	-2
659.708	-16
659.741	-8
659.773	19
659.806	16
659.838	4
659.87	-6
659.903	-16
659.935	7
659.967	-12
660	-12
660.032	-3
660.065	7
660.097	16
660.129	-9
660.162	-39
660.194	4
660.226	6
660.259	5
660.291	-8
660.323	-2
660.356	5
660.388	-5
660.42	-8
660.453	17
660.485	16
660.517	7
660.55	17
660.582	-19
660.614	-5
660.647	-8
660.679	-20
660.711	9
660.743	-16
660.776	-20
660.808	-6
660.84	-2
660.873	-3
660.905	-3
660.937	-10
660.969	1
661.002	7
661.034	20
661.066	-1
661.099	3
661.131	3
661.163	4
661.195	0
661.228	14
661.26	-11
661.292	-1
661.324	0
661.357	6
661.389	0
661.421	8
661.453	2
661.485	-5
661.518	3
661.55	-22
661.582	-11
661.614	2
661.647	10
661.679	6
661.711	2
661.743	-8
661.775	-12
661.808	23
661.84	3
661.872	9
661.904	4
661.936	-6
661.969	-15
662.001	-13
662.033	-2
662.065	7
662.097	3
662.129	4
662.162	-16
662.194	-3
662.226	9
662.258	1
662.29	-3
662.322	-7
662.355	-12
662.387	23
662.419	24
662.451	2
662.483	3
662.515	-11
662.547	3
662.58	-11
662.612	-7
662.644	0
662.676	7
662.708	5
662.74	-7
662.772	5
662.804	3
662.836	6
662.869	13
662.901	3
662.933	-10
662.965	16
662.997	-3
663.029	-2
663.061	-7
663.093	-1
663.125	10
663.157	-6
663.189	-15
663.221	15
663.254	2
663.286	1
663.318	1
663.35	-8
663.382	-13
663.414	-2
663.446	9
663.478	-8
663.51	20
663.542	-5
663.574	-4
663.606	-1
663.638	-13
663.67	-12
663.702	-11
663.734	15
663.766	1
663.798	-3
663.83	10
663.862	3
663.894	2
663.926	-7
663.958	-4
663.99	-17
664.022	-6
664.054	-1
664.086	-21
664.118	-21
664.15	-23
664.182	-5
664.214	7
664.246	18
664.278	5
664.31	17
664.342	12
664.374	-11
664.406	-13
664.438	-19
664.47	16
664.502	-6
664.534	2
664.566	1
664.598	12
664.63	1
664.662	0
664.693	-2
664.725	-4
664.757	-13
664.789	-11
664.821	-1
664.853	6
664.885	0
664.917	-5
664.949	13
664.981	5
665.013	-7
665.045	-28
665.076	1
665.108	-2
665.14	-4
665.172	-8
665.204	10
665.236	-13
665.268	6
665.3	2
665.331	-15
665.363	7
665.395	-10
665.427	1
665.459	6
665.491	-5
665.523	-4
665.555	-4
665.586	7
665.618	-14
665.65	-24
665.682	7
665.714	9
665.746	3
665.777	12
665.809	-9
665.841	3
665.873	-5
665.905	5
665.937	8
665.968	0
666	-1
666.032	0
666.064	-7
666.096	-4
666.127	8
666.159	19
666.191	25
666.223	6
666.255	-3
666.286	-9
666.318	-12
666.35	17
666.382	9
666.413	-3
666.445	-11
666.477	-33
666.509	-4
666.54	5
666.572	-3
666.604	-5
666.636	13
666.667	21
666.699	27
666.731	-12
666.763	-17
666.794	2
666.826	-1
666.858	-5
666.89	-4
666.921	0
666.953	-2
666.985	6
667.017	11
667.048	1
667.08	-16
667.112	-5
667.143	-11
667.175	-7
667.207	-14
667.238	-10
667.27	-1
667.302	2
667.334	-8
667.365	-9
667.397	3
667.429	5
667.46	10
667.492	-6
667.524	-4
667.555	-9
667.587	5
667.619	1
667.65	-15
667.682	-8
667.714	0
667.745	-11
667.777	3
667.808	17
667.84	15
667.872	12
667.903	6
667.935	9
667.967	-7
667.998	5
668.03	7
668.061	5
668.093	-3
668.125	4
668.156	14
668.188	-9
668.22	-10
668.251	-11
668.283	5
668.314	-2
668.346	1
668.377	27
668.409	17
668.441	22
668.472	3
668.504	1
668.535	-1
668.567	2
668.599	7
668.63	-4
668.662	4
668.693	5
668.725	-12
668.756	-14
668.788	-7
668.819	-17
668.851	6
668.882	16
668.914	-8
668.946	3
668.977	-1
669.009	-2
669.04	-16
669.072	1
669.103	8
669.135	-7
669.166	9
669.198	5
669.229	3
669.261	3
669.292	-5
669.324	7
669.355	15
669.387	-7
669.418	-3
669.45	-13
669.481	0
669.513	5
669.544	16
669.576	2
669.607	7
669.639	6
669.67	-7
669.701	5
669.733	-4
669.764	7
669.796	7
669.827	-7
669.859	10
669.89	2
669.922	-5
669.953	-2
669.985	1
670.016	17
670.047	5
670.079	-2
670.11	-2
670.142	-6
670.173	-14
670.204	4
670.236	8
670.267	2
670.299	-6
670.33	1
670.362	9
670.393	-8
670.424	1
670.456	7
670.487	5
670.518	-2
670.55	-1
670.581	-4
670.613	-3
670.644	10
670.675	-8
670.707	1
670.738	8
670.769	19
670.801	3
670.832	19
670.864	-1
670.895	2
670.926	4
670.958	6
670.989	0
671.02	7
671.052	1
671.083	0
671.114	-26
671.146	11
671.177	0
671.208	-2
671.24	-14
671.271	-12
671.302	14
671.333	-3
671.365	2
671.396	-6
671.427	21
671.459	6
671.49	9
671.521	2
671.553	2
671.584	14
671.615	1
671.646	7
671.678	7
671.709	-17
671.74	-28
671.771	-3
671.803	6
671.834	6
671.865	18
671.896	1
671.928	2
671.959	-9
671.99	1
672.021	5
672.053	-1
672.084	18
672.115	10
672.146	-5
672.178	-23
672.209	-3
672.24	-5
672.271	21
672.303	12
672.334	0
672.365	-4
672.396	1
672.427	-1
672.459	10
672.49	16
672.521	8
672.552	13
672.583	-1
672.615	-6
672.646	-2
672.677	-22
672.708	12
672.739	19
672.77	9
672.802	-3
672.833	-11
672.864	1
672.895	-18
672.926	12
672.957	-18
672.989	13
673.02	1
673.051	-3
673.082	24
673.113	-6
673.144	-11
673.175	5
673.206	-6
673.238	10
673.269	-8
673.3	-18
673.331	8
673.362	6
673.393	2
673.424	4
673.455	6
673.487	9
673.518	3
673.549	3
673.58	10
673.611	8
673.642	-10
673.673	-8
673.704	-11
673.735	-2
673.766	0
673.797	-5
673.828	-3
673.86	-1
673.891	-8
673.922	-10
673.953	-2
673.984	18
674.015	17
674.046	-5
674.077	0
674.108	-8
674.139	10
674.17	-10
674.201	-15
674.232	-11
674.263	-13
674.294	-9
674.325	-14
674.356	23
674.387	18
674.418	10
674.449	-13
674.48	-13
674.511	-1
674.542	0
674.573	-3
674.604	6
674.635	-3
674.666	19
674.697	-14
674.728	-2
674.759	2
674.79	-4
674.821	0
674.852	1
674.883	0
674.914	-5
674.945	0
674.976	-2
675.007	-12
675.038	-8
675.069	-6
675.1	3
675.131	9
675.162	-12
675.193	0
675.224	9
675.254	6
675.285	-3
675.316	11
675.347	4
675.378	3
675.409	-9
675.44	3
675.471	9
675.502	-2
675.533	1
675.564	3
675.595	7
675.625	34
675.656	14
675.687	4
675.718	-15
675.749	10
675.78	3
675.811	2
675.842	6
675.873	-2
675.903	-21
675.934	-15
675.965	-5
675.996	-2
676.027	7
676.058	-8
676.089	-29
676.119	-12
676.15	-10
676.181	12
676.212	0
676.243	13
676.274	0
676.304	5
676.335	-18
676.366	0
676.397	-6
676.428	-2
676.459	10
676.489	14
676.52	12
676.551	-4
676.582	-14
676.613	0
676.643	1
676.674	11
676.705	16
676.736	-2
676.767	3
676.797	-2
676.828	0
676.859	-12
676.89	-12
676.92	4
676.951	16
676.982	4
677.013	-9
677.044	19
677.074	23
677.105	-2
677.136	1
677.167	6
677.197	19
677.228	7
677.259	6
677.289	-1
677.32	-7
677.351	-16
677.382	0
677.412	-7
677.443	-5
677.474	-16
677.505	12
677.535	17
677.566	-12
677.597	-19
677.627	-5
677.658	-3
677.689	-9
677.72	-9
677.75	5
677.781	10
677.812	0
677.842	17
677.873	7
677.904	-6
677.934	-13
677.965	-2
677.996	-13
678.026	4
678.057	5
678.088	-4
678.118	7
678.149	0
678.18	-9
678.21	2
678.241	-2
678.272	8
678.302	1
678.333	12
678.363	10
678.394	-12
678.425	-9
678.455	-9
678.486	-2
678.517	-6
678.547	-1
678.578	5
678.608	-16
678.639	-1
678.67	2
678.7	2
678.731	1
678.761	-20
678.792	-18
678.823	-6
678.853	-3
678.884	-14
678.914	1
678.945	19
678.975	5
679.006	12
679.037	-1
679.067	28
679.098	8
679.128	2
679.159	-8
679.189	3
679.22	-13
679.25	11
679.281	6
679.312	1
679.342	9
679.373	22
679.403	6
679.434	8
679.464	1
679.495	19
679.525	-15
679.556	-4
679.586	9
679.617	4
679.647	4
679.678	-6
679.708	-12
679.739	-4
679.769	-8
679.8	6
679.83	-6
679.861	-5
679.891	-7
679.922	-23
679.952	-9
679.983	1
680.013	2
680.044	-5
680.074	20
680.105	8
680.135	9
680.165	2
680.196	11
680.226	0
680.257	7
680.287	-6
680.318	-9
680.348	-2
680.379	6
680.409	5
680.439	-18
680.47	-1
680.5	1
680.531	6
680.561	7
680.592	17
680.622	29
680.652	12
680.683	4
680.713	-1
680.744	10
680.774	-10
680.804	24
680.835	0
680.865	-11
680.896	7
680.926	19
680.956	1
680.987	5
681.017	0
681.047	-2
681.078	-22
681.108	-4
681.139	6
681.169	8
681.199	4
681.23	21
681.26	6
681.29	10
681.321	-10
681.351	-5
681.381	-19
681.412	-4
681.442	10
681.472	6
681.503	10
681.533	13
681.563	-4
681.594	5
681.624	-2
681.654	-11
681.685	-12
681.715	-3
681.745	-3
681.775	-1
681.806	-7
681.836	2
681.866	2
681.897	13
681.927	-1
681.957	-30
681.987	-18
682.018	-13
682.048	-8
682.078	-3
682.109	32
682.139	3
682.169	-5
682.199	3
682.23	3
682.26	-10
682.29	-5
682.32	-14
682.351	-17
682.381	-15
682.411	-3
682.441	5
682.472	-31
682.502	1
682.532	-2
682.562	3
682.592	6
682.623	7
682.653	1
682.683	-7
682.713	-8
682.743	-2
682.774	-4
682.804	3
682.834	16
682.864	-10
682.894	10
682.925	1
682.955	1
682.985	6
683.015	8
683.045	9
683.076	-5
683.106	-1
683.136	-10
683.166	-3
683.196	-23
683.226	2
683.257	3
683.287	0
683.317	-13
683.347	-18
683.377	-3
683.407	-7
683.437	16
683.468	19
683.498	5
683.528	1
683.558	7
683.588	0
683.618	-9
683.648	-28
683.678	7
683.708	10
683.739	-5
683.769	-6
683.799	14
683.829	-6
683.859	-3
683.889	3
683.919	14
683.949	4
683.979	-8
684.009	5
684.039	9
684.07	-9
684.1	19
684.13	-3
684.16	-10
684.19	0
684.22	1
684.25	1
684.28	-6
684.31	12
684.34	0
684.37	-5
684.4	-10
684.43	-7
684.46	1
684.49	20
684.52	-2
684.55	6
684.58	-4
684.61	-1
684.64	7
684.67	15
684.7	4
684.73	11
684.76	-17
684.79	4
684.82	0
684.85	-10
684.88	-10
684.91	-1
684.94	9
684.97	9
685	0
685.03	-13
685.06	-8
685.09	2
685.12	13
685.15	-1
685.18	7
685.21	8
685.24	14
685.27	23
685.3	-3
685.33	-2
685.36	-3
685.39	-4
685.42	-6
685.45	-2
685.48	3
685.51	-2
685.54	13
685.569	16
685.599	8
685.629	4
685.659	12
685.689	10
685.719	1
685.749	-1
685.779	2
685.809	-6
685.839	5
685.869	8
685.898	-3
685.928	-2
685.958	-2
685.988	18
686.018	-2
686.048	-9
686.078	13
686.108	14
686.137	9
686.167	16
686.197	-5
686.227	-11
686.257	22
686.287	10
686.317	2
686.346	-13
686.376	1
686.406	0
686.436	2
686.466	2
686.496	5
686.525	8
686.555	10
686.585	13
686.615	32
686.645	-6
686.675	2
686.704	-13
686.734	-9
686.764	14
686.794	9
686.824	1
686.853	8
686.883	14
686.913	1
686.943	1
686.973	-3
687.002	-14
687.032	9
687.062	-14
687.092	8
687.121	-13
687.151	-9
687.181	5
687.211	10
687.24	13
687.27	-3
687.3	7
687.33	-2
687.359	-2
687.389	-11
687.419	-13
687.449	15
687.478	-2
687.508	8
687.538	-2
687.568	6
687.597	-5
687.627	5
687.657	0
687.686	12
687.716	25
687.746	-5
687.776	-9
687.805	-2
687.835	-9
687.865	21
687.894	15
687.924	3
687.954	1
687.983	4
688.013	22
688.043	18
688.072	7
688.102	2
688.132	-7
688.161	7
688.191	-5
688.221	16
688.25	-3
688.28	3
688.31	-3
688.339	-4
688.369	-23
688.399	-2
688.428	-10
688.458	3
688.488	-3
688.517	6
688.547	-4
688.576	37
688.606	13
688.636	-15
688.665	-12
688.695	3
688.725	11
688.754	-3
688.784	2
688.813	3
688.843	-3
688.873	-10
688.902	-10
688.932	7
688.961	-1
688.991	4
689.02	6
689.05	-9
689.08	-3
689.109	8
689.139	-2
689.168	9
689.198	-3
689.227	0
689.257	3
689.287	32
689.316	2
689.346	-20
689.375	-11
689.405	3
689.434	5
689.464	-1
689.493	-6
689.523	-5
689.552	0
689.582	0
689.611	7
689.641	7
689.67	-3
689.7	15
689.73	6
689.759	12
689.789	16
689.818	0
689.848	6
689.877	8
689.906	-20
689.936	-11
689.965	-1
689.995	0
690.024	1
690.054	0
690.083	-6
690.113	2
690.142	13
690.172	0
690.201	0
690.231	2
690.26	9
690.29	0
690.319	26
690.348	6
690.378	-1
690.407	-7
690.437	1
690.466	2
690.496	-13
690.525	16
690.555	-5
690.584	-9
690.613	-4
690.643	9
690.672	11
690.702	15
690.731	7
690.76	15
690.79	61
690.819	41
690.849	46
690.878	25
690.907	21
690.937	34
690.966	38
690.996	1
691.025	1
691.054	3
691.084	0
691.113	5
691.142	8
691.172	3
691.201	0
691.23	7
691.26	19
691.289	5
691.319	8
691.348	6
691.377	32
691.407	18
691.436	9
691.465	5
691.495	-10
691.524	-15
691.553	-18
691.583	0
691.612	9
691.641	5
691.67	0
691.7	5
691.729	-17
691.758	4
691.788	-3
691.817	2
691.846	-11
691.876	0
691.905	13
691.934	0
691.963	14
691.993	9
692.022	-14
692.051	-22
692.081	12
692.11	11
692.139	10
692.168	-3
692.198	20
692.227	13
692.256	6
692.285	-3
692.315	-20
692.344	-7
692.373	3
692.402	-17
692.432	-1
692.461	-11
692.49	-3
692.519	-13
692.548	22
692.578	10
692.607	-7
692.636	-10
692.665	10
692.694	-5
692.724	-5
692.753	2
692.782	13
692.811	0
692.84	-21
692.87	-1
692.899	4
692.928	2
692.957	5
692.986	13
693.016	-2
693.045	-2
693.074	5
693.103	0
693.132	5
693.161	5
693.191	0
693.22	-10
693.249	-2
693.278	2
693.307	7
693.336	-3
693.365	-12
693.395	-5
693.424	5
693.453	24
693.482	16
693.511	9
693.54	11
693.569	14
693.598	-7
693.628	1
693.657	13
693.686	14
693.715	2
693.744	0
693.773	19
693.802	8
693.831	2
693.86	21
693.889	-12
693.919	-7
693.948	8
693.977	4
694.006	-10
694.035	-5
694.064	3
694.093	-15
694.122	-1
694.151	-3
694.18	-7
694.209	22
694.238	1
694.267	24
694.296	20
694.325	11
694.354	11
694.383	-2
694.412	6
694.441	-15
694.471	-6
694.5	-1
694.529	2
694.558	20
694.587	14
694.616	-2
694.645	-13
694.674	9
694.703	11
694.732	8
694.761	10
694.79	7
694.819	-6
694.848	-1
694.877	22
694.906	32
694.935	9
694.963	21
694.992	7
695.021	18
695.05	6
695.079	11
695.108	0
695.137	25
695.166	5
695.195	-4
695.224	-5
695.253	-4
695.282	5
695.311	1
695.34	4
695.369	-10
695.398	0
695.427	20
695.456	7
695.485	23
695.513	21
695.542	1
695.571	-1
695.6	12
695.629	17
695.658	14
695.687	13
695.716	6
695.745	18
695.774	-15
695.802	0
695.831	9
695.86	2
695.889	2
695.918	3
695.947	12
695.976	-2
696.005	-5
696.033	11
696.062	2
696.091	3
696.12	1
696.149	18
696.178	11
696.207	1
696.235	-9
696.264	10
696.293	8
696.322	11
696.351	12
696.38	10
696.408	-9
696.437	-4
696.466	-4
696.495	13
696.524	19
696.553	-1
696.581	18
696.61	8
696.639	2
696.668	1
696.697	-11
696.725	23
696.754	3
696.783	5
696.812	2
696.84	19
696.869	28
696.898	5
696.927	4
696.956	9
696.984	-3
697.013	-3
697.042	-3
697.071	0
697.099	8
697.128	3
697.157	11
697.186	10
697.214	15
697.243	0
697.272	5
697.301	9
697.329	2
697.358	15
697.387	21
697.415	-2
697.444	1
697.473	-10
697.502	-11
697.53	9
697.559	9
697.588	5
697.616	-9
697.645	13
697.674	9
697.703	13
697.731	14
697.76	1
697.789	2
697.817	1
697.846	18
697.875	10
697.903	21
697.932	9
697.961	-3
697.989	14
698.018	1
698.047	-3
698.075	9
698.104	-11
698.133	3
698.161	-11
698.19	2
698.218	6
698.247	5
698.276	3
698.304	13
698.333	14
698.362	-4
698.39	0
698.419	16
698.447	0
698.476	-2
698.505	-6
698.533	3
698.562	5
698.591	-14
698.619	4
698.648	-12
698.676	-10
698.705	-6
698.733	-20
698.762	6
698.791	9
698.819	2
698.848	7
698.876	9
698.905	7
698.933	1
698.962	5
698.991	-1
699.019	3
699.048	-3
699.076	2
699.105	-13
699.133	7
699.162	7
699.19	2
699.219	12
699.248	-2
699.276	0
699.305	-10
699.333	0
699.362	-1
699.39	0
699.419	8
699.447	5
699.476	-2
699.504	5
699.533	10
699.561	-12
699.59	-7
699.618	6
699.647	10
699.675	5
699.704	-8
699.732	4
699.761	23
699.789	1
699.818	22
699.846	-3
699.874	2
699.903	0
699.931	13
699.96	1
699.988	-11
700.017	5
700.045	0
700.074	-4
700.102	4
700.13	0
700.159	2
700.187	4
700.216	-19
700.244	-18
700.273	-19
700.301	-3
700.329	17
700.358	8
700.386	-9
700.415	1
700.443	-1
700.472	-6
700.5	0
700.528	20
700.557	3
700.585	-13
700.614	-3
700.642	8
700.67	10
700.699	11
700.727	-1
700.755	10
700.784	12
700.812	0
700.841	19
700.869	7
700.897	0
700.926	-8
700.954	-7
700.982	11
701.011	2
701.039	15
701.067	7
701.096	12
701.124	-24
701.152	7
701.181	14
701.209	-12
701.237	-4
701.266	-2
701.294	-1
701.322	-3
701.351	-2
701.379	0
701.407	-6
701.435	10
701.464	14
701.492	16
701.52	-5
701.549	3
701.577	-7
701.605	-7
701.634	-16
701.662	-1
701.69	-4
701.718	-17
701.747	-11
701.775	-8
701.803	-7
701.831	-8
701.86	0
701.888	18
701.916	1
701.944	1
701.973	-8
702.001	-11
702.029	-13
702.057	-9
702.086	-10
702.114	-6
702.142	9
702.17	-6
702.199	1
702.227	-7
702.255	4
702.283	-3
702.311	14
702.34	-3
702.368	-13
702.396	8
702.424	-4
702.452	0
702.481	-3
702.509	-5
702.537	1
702.565	-6
702.593	-15
702.621	2
702.65	13
702.678	0
702.706	-3
702.734	0
702.762	5
702.79	-6
702.819	-4
702.847	10
702.875	13
702.903	-2
702.931	-12
702.959	-1
702.988	1
703.016	-17
703.044	6
703.072	-2
703.1	6
703.128	-8
703.156	-2
703.184	4
703.212	4
703.241	7
703.269	-1
703.297	-8
703.325	-5
703.353	-15
703.381	1
703.409	-6
703.437	-4
703.465	19
703.493	-2
703.522	14
703.55	-1
703.578	2
703.606	-6
703.634	7
703.662	-3
703.69	-7
703.718	19
703.746	22
703.774	4
703.802	26
703.83	5
703.858	-3
703.886	-7
703.914	-5
703.942	14
703.97	16
703.998	-14
704.027	26
704.055	13
704.083	-3
704.111	-1
704.139	-4
704.167	-12
704.195	2
704.223	-8
704.251	-15
704.279	11
704.307	-4
704.335	-10
704.363	-6
704.391	-6
704.419	-16
704.447	-21
704.475	-3
704.503	-4
704.531	5
704.558	10
704.586	-6
704.614	-7
704.642	-4
704.67	-10
704.698	-2
704.726	-1
704.754	8
704.782	-9
704.81	-8
704.838	18
704.866	16
704.894	-13
704.922	-2
704.95	10
704.978	7
705.006	6
705.034	25
705.061	6
705.089	12
705.117	-9
705.145	-9
705.173	17
705.201	14
705.229	11
705.257	6
705.285	20
705.313	4
705.34	2
705.368	2
705.396	2
705.424	3
705.452	-4
705.48	-4
705.508	-3
705.536	-7
705.563	-7
705.591	0
705.619	1
705.647	2
705.675	-2
705.703	-9
705.731	2
705.758	6
705.786	2
705.814	19
705.842	-1
705.87	10
705.898	11
705.925	-2
705.953	-2
705.981	-1
706.009	2
706.037	9
706.065	9
706.092	-12
706.12	1
706.148	10
706.176	-7
706.204	13
706.231	1
706.259	-3
706.287	-7
706.315	4
706.342	0
706.37	17
706.398	-2
706.426	-4
706.454	8
706.481	8
706.509	-3
706.537	-2
706.565	-2
706.592	11
706.62	4
706.648	5
706.676	-17
706.703	7
706.731	-10
706.759	-3
706.787	6
706.814	2
706.842	-4
706.87	2
706.897	10
706.925	-2
706.953	15
706.981	21
707.008	10
707.036	14
707.064	2
707.091	-9
707.119	-2
707.147	-9
707.174	-15
707.202	15
707.23	4
707.258	17
707.285	-2
707.313	7
707.341	-11
707.368	-16
707.396	-5
707.424	-7
707.451	5
707.479	12
707.507	10
707.534	-9
707.562	-3
707.59	-16
707.617	-8
707.645	4
707.672	-4
707.7	4
707.728	15
707.755	2
707.783	-6
707.811	8
707.838	-12
707.866	5
707.893	-6
707.921	-8
707.949	-20
707.976	2
708.004	-7
708.031	-9
708.059	-1
708.087	6
708.114	-6
708.142	-4
708.169	-14
708.197	-25
708.225	-8
708.252	12
708.28	28
708.307	5
708.335	17
708.362	-6
708.39	-8
708.418	-8
708.445	2
708.473	7
708.5	7
708.528	4
708.555	-11
708.583	-1
708.61	-14
708.638	-7
708.665	-24
708.693	-8
708.72	-7
708.748	-6
708.776	-6
708.803	0
708.831	13
708.858	5
708.886	12
708.913	-1
708.941	2
708.968	3
708.996	16
709.023	29
709.051	5
709.078	-3
709.105	-3
709.133	-15
709.16	-1
709.188	17
709.215	-2
709.243	3
709.27	-7
709.298	-6
709.325	-13
709.353	-9
709.38	-12
709.408	15
709.435	11
709.462	-24
709.49	-16
709.517	-9
709.545	-7
709.572	4
709.6	3
709.627	0
709.655	-15
709.682	1
709.709	0
709.737	-6
709.764	-14
709.792	6
709.819	-3
709.846	-15
709.874	12
709.901	16
709.929	22
709.956	2
709.983	-5
710.011	1
710.038	-2
710.066	0
710.093	5
710.12	-2
710.148	-12
710.175	-6
710.202	0
710.23	15
710.257	10
710.284	11
710.312	8
710.339	16
710.366	5
710.394	11
710.421	9
710.448	19
710.476	-8
710.503	-5
710.53	17
710.558	12
710.585	20
710.612	-5
710.64	8
710.667	8
710.694	-16
710.722	-6
710.749	4
710.776	-2
710.804	9
710.831	8
710.858	10
710.885	-2
710.913	-3
710.94	24
710.967	8
710.995	-3
711.022	6
711.049	-1
711.076	-4
711.104	-4
711.131	-14
711.158	8
711.185	8
711.213	-10
711.24	-7
711.267	-7
711.294	-17
711.322	6
711.349	-5
711.376	1
711.403	9
711.431	1
711.458	-20
711.485	-13
711.512	0
711.54	-1
711.567	9
711.594	-5
711.621	4
711.648	3
711.676	2
711.703	-8
711.73	-12
711.757	-2
711.784	1
711.812	15
711.839	11
711.866	5
711.893	1
711.92	13
711.947	17
711.975	4
712.002	-11
712.029	11
712.056	4
712.083	7
712.11	-9
712.138	24
712.165	-3
712.192	5
712.219	-5
712.246	5
712.273	-12
712.3	-5
712.328	19
712.355	-2
712.382	-3
712.409	4
712.436	4
712.463	14
712.49	0
712.517	7
712.544	2
712.572	4
712.599	3
712.626	0
712.653	-16
712.68	-4
712.707	16
712.734	6
712.761	-4
712.788	-5
712.815	9
712.842	14
712.87	3
712.897	-16
712.924	-11
712.951	8
712.978	25
713.005	16
713.032	33
713.059	-13
713.086	15
713.113	2
713.14	-17
713.167	0
713.194	14
713.221	1
713.248	6
713.275	-1
713.302	-8
713.329	16
713.356	7
713.383	10
713.41	20
713.437	-2
713.464	0
713.491	13
713.518	11
713.545	7
713.572	3
713.599	23
713.626	-9
713.653	-6
713.68	-15
713.707	11
713.734	4
713.761	0
713.788	-4
713.815	1
713.842	2
713.869	-8
713.896	5
713.923	14
713.95	3
713.977	10
714.004	4
714.031	-6
714.058	-10
714.085	-9
714.112	16
714.139	9
714.165	-10
714.192	-6
714.219	-1
714.246	-1
714.273	2
714.3	-10
714.327	-2
714.354	0
714.381	2
714.408	21
714.435	-6
714.461	-4
714.488	11
714.515	-4
714.542	-6
714.569	-4
714.596	-3
714.623	10
714.65	-8
714.677	13
714.703	6
714.73	1
714.757	5
714.784	1
714.811	-18
714.838	-7
714.865	-7
714.891	18
714.918	13
714.945	-11
714.972	-18
714.999	-4
715.026	-11
715.052	2
715.079	12
715.106	0
715.133	4
715.16	-11
715.187	2
715.213	11
715.24	-2
715.267	-10
715.294	0
715.321	-6
715.347	1
715.374	-5
715.401	-3
715.428	4
715.455	15
715.481	-4
715.508	15
715.535	-9
715.562	30
715.588	6
715.615	-5
715.642	-3
715.669	19
715.695	-7
715.722	-10
715.749	-3
715.776	9
715.802	-3
715.829	5
715.856	-17
715.883	20
715.909	-10
715.936	-12
715.963	-4
715.99	-12
716.016	-16
716.043	-5
716.07	-5
716.096	1
716.123	-6
716.15	-5
716.177	7
716.203	16
716.23	-3
716.257	-4
716.283	12
716.31	-21
716.337	0
716.363	10
716.39	-1
716.417	5
716.443	0
716.47	4
716.497	-2
716.523	8
716.55	20
716.577	12
716.603	-7
716.63	25
716.657	20
716.683	-4
716.71	-8
716.737	-19
716.763	4
716.79	12
716.817	17
716.843	-2
716.87	-18
716.897	-2
716.923	3
716.95	-6
716.976	-9
717.003	-4
717.03	2
717.056	-4
717.083	-2
717.109	14
717.136	21
717.163	-4
717.189	15
717.216	1
717.242	-11
717.269	-1
717.296	6
717.322	12
717.349	8
717.375	14
717.402	11
717.428	7
717.455	19
717.481	14
717.508	2
717.535	8
717.561	0
717.588	-19
717.614	-8
717.641	6
717.667	10
717.694	11
717.72	-11
717.747	-8
717.773	-16
717.8	8
717.826	4
717.853	0
717.88	6
717.906	16
717.933	28
717.959	7
717.986	1
718.012	4
718.039	36
718.065	16
718.092	8
718.118	-9
718.144	4
718.171	12
718.197	26
718.224	14
718.25	9
718.277	9
718.303	-8
718.33	5
718.356	-16
718.383	-14
718.409	-3
718.436	5
718.462	6
718.489	-3
718.515	7
718.541	18
718.568	10
718.594	1
718.621	2
718.647	3
718.674	-8
718.7	-5
718.726	-4
718.753	7
718.779	13
718.806	-7
718.832	4
718.858	1
718.885	-9
718.911	7
718.938	13
718.964	-17
718.99	5
719.017	9
719.043	12
719.07	20
719.096	-32
719.122	-1
719.149	13
719.175	5
719.201	9
719.228	10
719.254	8
719.281	5
719.307	2
719.333	-4
719.36	12
719.386	-2
719.412	1
719.439	-10
719.465	-8
719.491	-16
719.518	5
719.544	-12
719.57	13
719.597	5
719.623	9
719.649	2
719.675	1
719.702	-6
719.728	10
719.754	-8
719.781	1
719.807	0
719.833	9
719.86	6
719.886	1
719.912	-5
719.938	-5
719.965	3
719.991	-3
720.017	-1
720.044	-5
720.07	9
720.096	6
720.122	2
720.149	5
720.175	10
720.201	-3
720.227	8
720.254	6
720.28	5
720.306	-7
720.332	13
720.359	-1
720.385	6
720.411	19
720.437	11
720.463	-6
720.49	-2
720.516	-2
720.542	-2
720.568	-7
720.595	10
720.621	6
720.647	-3
720.673	0
720.699	-6
720.725	-10
720.752	3
720.778	15
720.804	15
720.83	30
720.856	-7
720.883	-3
720.909	-7
720.935	9
720.961	-2
720.987	2
721.013	-1
721.04	-8
721.066	-6
721.092	-1
721.118	-7
721.144	-15
721.17	-3
721.196	-1
721.223	-9
721.249	7
721.275	3
721.301	-1
721.327	14
721.353	9
721.379	-6
721.405	0
721.432	-1
721.458	-4
721.484	0
721.51	-22
721.536	-2
721.562	-7
721.588	-3
721.614	-4
721.64	-18
721.666	-7
721.693	-3
721.719	-12
721.745	-16
721.771	-9
721.797	-14
721.823	6
721.849	17
721.875	7
721.901	4
721.927	-4
721.953	-8
721.979	17
722.005	8
722.031	-5
722.057	-1
722.083	8
722.109	17
722.135	7
722.161	28
722.187	-16
722.214	-2
722.24	0
722.266	-9
722.292	16
722.318	11
722.344	7
722.37	10
722.396	8
722.422	-5
722.448	5
722.474	-8
722.5	14
722.526	-2
722.552	-2
722.578	12
722.603	-13
722.629	5
722.655	13
722.681	-11
722.707	-5
722.733	-3
722.759	-15
722.785	-8
722.811	-5
722.837	-3
722.863	3
722.889	18
722.915	-2
722.941	-8
722.967	-6
722.993	3
723.019	1
723.045	2
723.071	-6
723.097	3
723.122	1
723.148	-9
723.174	-5
723.2	3
723.226	-9
723.252	-13
723.278	-6
723.304	-5
723.33	-3
723.356	-8
723.381	-4
723.407	-7
723.433	14
723.459	11
723.485	16
723.511	7
723.537	7
723.563	6
723.588	7
723.614	-6
723.64	7
723.666	12
723.692	16
723.718	9
723.744	-13
723.769	1
723.795	-2
723.821	0
723.847	-10
723.873	19
723.899	19
723.924	-7
723.95	-7
723.976	-13
724.002	-8
724.028	3
724.053	-8
724.079	-7
724.105	9
724.131	10
724.157	2
724.182	5
724.208	18
724.234	4
724.26	3
724.286	4
724.311	0
724.337	-7
724.363	-9
724.389	14
724.415	-3
724.44	20
724.466	9
724.492	-4
724.518	2
724.543	1
724.569	-1
724.595	7
724.621	-3
724.646	4
724.672	-2
724.698	2
724.723	13
724.749	-3
724.775	6
724.801	0
724.826	-18
724.852	-12
724.878	1
724.904	-17
724.929	-2
724.955	-11
724.981	20
725.006	-4
725.032	-10
725.058	1
725.083	1
725.109	-3
725.135	6
725.161	-10
725.186	-4
725.212	-14
725.238	8
725.263	1
725.289	-4
725.315	-7
725.34	-14
725.366	4
725.392	-8
725.417	-7
725.443	0
725.468	10
725.494	-4
725.52	9
725.545	-5
725.571	1
725.597	-2
725.622	-1
725.648	-3
725.674	-1
725.699	9
725.725	3
725.75	9
725.776	-9
725.802	3
725.827	16
725.853	1
725.878	4
725.904	-18
725.93	-23
725.955	-10
725.981	-11
726.006	2
726.032	1
726.057	0
726.083	-18
726.109	-4
726.134	15
726.16	13
726.185	5
726.211	-4
726.236	12
726.262	7
726.288	10
726.313	23
726.339	3
726.364	12
726.39	8
726.415	4
726.441	13
726.466	-2
726.492	5
726.517	-7
726.543	-13
726.568	-22
726.594	-12
726.619	9
726.645	8
726.67	6
726.696	3
726.721	1
726.747	-20
726.772	4
726.798	-5
726.823	2
726.849	-4
726.874	8
726.9	30
726.925	10
726.951	-8
726.976	10
727.002	-11
727.027	0
727.053	13
727.078	-1
727.104	1
727.129	-4
727.155	-12
727.18	-1
727.205	2
727.231	-3
727.256	-4
727.282	0
727.307	8
727.333	-7
727.358	-1
727.383	-13
727.409	-16
727.434	10
727.46	5
727.485	-2
727.511	4
727.536	-23
727.561	-3
727.587	-4
727.612	4
727.637	-3
727.663	-8
727.688	26
727.714	-2
727.739	-16
727.764	-4
727.79	13
727.815	-6
727.841	9
727.866	10
727.891	24
727.917	-10
727.942	3
727.967	-7
727.993	-14
728.018	-14
728.043	2
728.069	-5
728.094	14
728.119	3
728.145	23
728.17	11
728.195	4
728.221	11
728.246	4
728.271	-10
728.297	0
728.322	9
728.347	7
728.373	8
728.398	14
728.423	-4
728.448	0
728.474	-6
728.499	2
728.524	-8
728.55	-12
728.575	-14
728.6	-9
728.625	0
728.651	1
728.676	-3
728.701	0
728.727	-3
728.752	-14
728.777	3
728.802	5
728.828	-8
728.853	9
728.878	-3
728.903	-10
728.929	-7
728.954	0
728.979	4
729.004	3
729.03	-6
729.055	17
729.08	-4
729.105	0
729.13	22
729.156	13
729.181	-4
729.206	-3
729.231	-2
729.256	-3
729.282	0
729.307	-3
729.332	8
729.357	-9
729.382	3
729.408	3
729.433	17
729.458	-3
729.483	9
729.508	9
729.533	-1
729.559	-10
729.584	-3
729.609	15
729.634	21
729.659	2
729.684	-12
729.71	20
729.735	4
729.76	6
729.785	7
729.81	6
729.835	2
729.86	-4
729.886	16
729.911	21
729.936	14
729.961	25
729.986	24
730.011	53
730.036	215
730.061	1011
730.086	2715
730.112	3485
730.137	2869
730.162	2160
730.187	1677
730.212	1271
730.237	812
730.262	452
730.287	251
730.312	141
730.337	71
730.362	67
730.387	49
730.413	16
730.438	17
730.463	5
730.488	0
730.513	11
730.538	10
730.563	25
730.588	28
730.613	20
730.638	6
730.663	-3
730.688	29
730.713	16
730.738	-1
730.763	-2
730.788	3
730.813	1
730.838	-9
730.863	2
730.888	-2
730.913	-2
730.938	7
730.963	28
730.988	122
731.013	426
731.038	622
731.063	617
731.088	486
731.113	335
731.138	261
731.163	194
731.188	108
731.213	73
731.238	58
731.263	18
731.288	14
731.313	8
731.338	-11
731.363	-2
731.388	-3
731.413	6
731.438	2
731.463	6
731.487	9
731.512	3
731.537	-1
731.562	-7
731.587	5
731.612	3
731.637	-6
731.662	17
731.687	-5
731.712	-10
731.737	1
731.762	-15
731.786	-6
731.811	4
731.836	3
731.861	22
731.886	-9
731.911	0
731.936	18
731.961	-2
731.986	-6
732.01	-4
732.035	13
732.06	8
732.085	-4
732.11	2
732.135	-3
732.16	-1
732.184	8
732.209	-5
732.234	7
732.259	4
732.284	9
732.309	-6
732.334	-4
732.358	-24
732.383	-13
732.408	-5
732.433	-3
732.458	-4
732.482	15
732.507	-8
732.532	0
732.557	8
732.582	9
732.607	21
732.631	64
732.656	90
732.681	150
732.706	343
732.73	457
732.755	426
732.78	303
732.805	244
732.83	172
732.854	143
732.879	109
732.904	43
732.929	6
732.953	17
732.978	17
733.003	15
733.028	3
733.052	6
733.077	2
733.102	16
733.127	1
733.151	0
733.176	13
733.201	-1
733.226	-19
733.25	5
733.275	1
733.3	-8
733.324	5
733.349	10
733.374	21
733.399	-3
733.423	2
733.448	-10
733.473	-11
733.497	2
733.522	-9
733.547	-2
733.571	18
733.596	6
733.621	4
733.646	13
733.67	14
733.695	5
733.72	3
733.744	10
733.769	3
733.794	21
733.818	-9
733.843	-15
733.867	-30
733.892	-11
733.917	-9
733.941	1
733.966	-13
733.991	-4
734.015	12
734.04	9
734.065	5
734.089	5
734.114	13
734.138	17
734.163	4
734.188	21
734.212	16
734.237	8
734.261	8
734.286	2
734.311	-2
734.335	-4
734.36	-8
734.384	8
734.409	2
734.434	-2
734.458	0
734.483	-2
734.507	-11
734.532	1
734.556	12
734.581	5
734.606	12
734.63	-3
734.655	-1
734.679	-6
734.704	1
734.728	-6
734.753	-7
734.777	18
734.802	-2
734.826	13
734.851	-3
734.876	10
734.9	8
734.925	12
734.949	-10
734.974	-1
734.998	-4
735.023	-10
735.047	-8
735.072	20
735.096	3
735.121	-7
735.145	-3
735.17	-3
735.194	9
735.219	2
735.243	10
735.268	5
735.292	0
735.317	9
735.341	-6
735.365	-7
735.39	8
735.414	4
735.439	4
735.463	16
735.488	5
735.512	11
735.537	1
735.561	-4
735.586	-4
735.61	0
735.634	-19
735.659	3
735.683	21
735.708	4
735.732	0
735.757	5
735.781	8
735.805	9
735.83	-14
735.854	-18
735.879	-7
735.903	7
735.927	13
735.952	9
735.976	-1
736.001	9
736.025	11
736.049	-1
736.074	-6
736.098	-9
736.123	7
736.147	-3
736.171	11
736.196	18
736.22	-15
736.244	6
736.269	-3
736.293	-4
736.317	2
736.342	-6
736.366	6
736.39	6
736.415	17
736.439	8
736.463	-8
736.488	-12
736.512	6
736.536	12
736.561	26
736.585	8
736.609	6
736.634	-13
736.658	3
736.682	-1
736.707	-2
736.731	-7
736.755	-4
736.78	15
736.804	6
736.828	8
736.852	-22
736.877	-8
736.901	-8
736.925	12
736.949	4
736.974	-4
736.998	-15
737.022	-2
737.047	-7
737.071	-1
737.095	8
737.119	16
737.144	9
737.168	5
737.192	-11
737.216	10
737.241	-4
737.265	9
737.289	6
737.313	4
737.337	11
737.362	2
737.386	2
737.41	-12
737.434	2
737.459	4
737.483	0
737.507	18
737.531	6
737.555	14
737.58	0
737.604	1
737.628	0
737.652	-8
737.676	-9
737.701	8
737.725	-3
737.749	3
737.773	-1
737.797	-6
737.821	9
737.846	4
737.87	30
737.894	-8
737.918	5
737.942	6
737.966	10
737.99	0
738.015	3
738.039	-5
738.063	-6
738.087	4
738.111	-16
738.135	13
738.159	-1
738.184	-12
738.208	1
738.232	5
738.256	19
738.28	6
738.304	8
738.328	-4
738.352	4
738.376	-8
738.4	0
738.425	15
738.449	-9
738.473	16
738.497	7
738.521	6
738.545	7
738.569	9
738.593	11
738.617	-4
738.641	16
738.665	-2
738.689	-12
738.713	9
738.737	-7
738.762	9
738.786	-2
738.81	-25
738.834	8
738.858	-10
738.882	9
738.906	-3
738.93	10
738.954	15
738.978	22
739.002	-6
739.026	15
739.05	4
739.074	-1
739.098	11
739.122	16
739.146	13
739.17	5
739.194	12
739.218	19
739.242	4
739.266	8
739.29	9
739.314	14
739.338	10
739.362	11
739.386	2
739.41	-17
739.434	-6
739.458	2
739.482	9
739.506	9
739.53	-5
739.554	13
739.577	4
739.601	12
739.625	-20
739.649	-4
739.673	-6
739.697	-3
739.721	-8
739.745	-2
739.769	9
739.793	21
739.817	22
739.841	-9
739.865	7
739.889	-4
739.912	6
739.936	-8
739.96	0
739.984	12
740.008	8
740.032	-3
740.056	1
740.08	-8
740.104	-12
740.127	-1
740.151	14
740.175	7
740.199	20
740.223	60
740.247	18
740.271	-1
740.295	1
740.318	-8
740.342	-9
740.366	-9
740.39	5
740.414	-6
740.438	-7
740.461	17
740.485	5
740.509	0
740.533	-11
740.557	1
740.581	-7
740.604	-8
740.628	-12
740.652	19
740.676	2
740.7	8
740.723	7
740.747	2
740.771	-7
740.795	1
740.819	11
740.842	-9
740.866	8
740.89	7
740.914	-19
740.938	-12
740.961	14
740.985	2
741.009	-10
741.033	21
741.056	-2
741.08	-4
741.104	-12
741.128	2
741.151	16
741.175	-1
741.199	18
741.223	11
741.246	-4
741.27	5
741.294	0
741.318	3
741.341	-19
741.365	3
741.389	0
741.413	11
741.436	10
741.46	6
741.484	20
741.507	-8
741.531	16
741.555	0
741.579	8
741.602	6
741.626	1
741.65	-7
741.673	19
741.697	-4
741.721	16
741.744	-2
741.768	-9
741.792	5
741.815	-10
741.839	5
741.863	16
741.886	10
741.91	22
741.934	20
741.957	-23
741.981	17
742.005	0
742.028	-1
742.052	-9
742.075	13
742.099	5
742.123	1
742.146	5
742.17	10
742.194	-7
742.217	-24
742.241	0
742.264	-8
742.288	27
742.312	4
742.335	-2
742.359	1
742.382	4
742.406	14
742.43	-7
742.453	-6
742.477	7
742.5	0
742.524	8
742.548	2
742.571	-1
742.595	0
742.618	-8
742.642	-8
742.665	3
742.689	-4
742.712	-1
742.736	-10
742.76	0
742.783	-7
742.807	10
742.83	8
742.854	-20
742.877	-6
742.901	-5
742.924	-7
742.948	2
742.971	0
742.995	-1
743.018	-2
743.042	-22
743.065	-1
743.089	-14
743.112	5
743.136	-3
743.159	-15
743.183	-8
743.206	3
743.23	-14
743.253	17
743.277	14
743.3	11
743.324	3
743.347	-8
743.371	-5
743.394	-6
743.418	21
743.441	-1
743.465	13
743.488	-3
743.512	-12
743.535	-9
743.558	0
743.582	13
743.605	5
743.629	3
743.652	5
743.676	3
743.699	5
743.723	-4
743.746	12
743.769	11
743.793	3
743.816	-16
743.84	-1
743.863	-12
743.886	9
743.91	0
743.933	0
743.957	10
743.98	5
744.003	-6
744.027	-3
744.05	-3
744.074	-2
744.097	-13
744.12	-13
744.144	-19
744.167	1
744.19	-8
744.214	-5
744.237	-7
744.26	4
744.284	0
744.307	-9
744.331	-6
744.354	3
744.377	-6
744.401	-11
744.424	12
744.447	-1
744.471	7
