Data from HighRes_H2D2_15_04_11_07_2024_HR4C61891__8__15-05-35-245.txt Node

Date: Thu Nov 07 15:05:35 EST 2024
User: crc00042
Spectrometer: HR4C6189
Trigger mode: 4
Integration Time (sec): 1.000000E-1
Scans to average: 1
Electric dark correction enabled: true
Nonlinearity correction enabled: false
Boxcar width: 0
XAxis mode: Wavelengths
Number of Pixels in Spectrum: 3648
>>>>>Begin Spectral Data<<<<<
639.567	-77
639.602	-77
639.636	-77
639.67	-47
639.704	-10
639.738	5
639.773	-3
639.807	-17
639.841	0
639.875	10
639.909	-4
639.943	-6
639.978	-7
640.012	-8
640.046	17
640.08	10
640.114	5
640.148	-2
640.182	-4
640.217	-18
640.251	19
640.285	-1
640.319	-8
640.353	3
640.387	11
640.421	0
640.455	7
640.49	14
640.524	5
640.558	11
640.592	-7
640.626	4
640.66	5
640.694	-2
640.728	8
640.762	0
640.796	16
640.83	18
640.865	-18
640.899	-2
640.933	4
640.967	-16
641.001	-4
641.035	0
641.069	-1
641.103	-22
641.137	-9
641.171	-5
641.205	15
641.239	1
641.273	14
641.307	9
641.341	1
641.375	-1
641.409	-13
641.443	-1
641.477	-5
641.511	5
641.545	9
641.579	2
641.614	16
641.648	7
641.682	-1
641.716	12
641.75	18
641.784	10
641.818	3
641.852	3
641.886	-2
641.919	17
641.953	5
641.987	-12
642.021	2
642.055	-5
642.089	-6
642.123	3
642.157	-12
642.191	-14
642.225	-1
642.259	-1
642.293	17
642.327	12
642.361	15
642.395	2
642.429	17
642.463	13
642.497	23
642.531	8
642.565	-22
642.599	9
642.633	-30
642.666	23
642.7	22
642.734	0
642.768	-11
642.802	1
642.836	9
642.87	-11
642.904	-1
642.938	7
642.972	2
643.005	4
643.039	7
643.073	11
643.107	9
643.141	4
643.175	5
643.209	-7
643.243	8
643.276	12
643.31	-4
643.344	-7
643.378	-10
643.412	-1
643.446	7
643.48	-4
643.513	-2
643.547	8
643.581	-3
643.615	4
643.649	5
643.683	9
643.716	10
643.75	-4
643.784	-15
643.818	0
643.852	15
643.886	7
643.919	-3
643.953	1
643.987	-13
644.021	-1
644.055	11
644.088	8
644.122	4
644.156	-12
644.19	-10
644.224	7
644.257	10
644.291	5
644.325	-1
644.359	-7
644.392	12
644.426	9
644.46	4
644.494	-8
644.527	0
644.561	9
644.595	-4
644.629	-3
644.662	-3
644.696	16
644.73	10
644.764	3
644.797	5
644.831	-6
644.865	9
644.899	7
644.932	6
644.966	-4
645	9
645.033	35
645.067	6
645.101	7
645.135	-12
645.168	2
645.202	-9
645.236	-9
645.269	6
645.303	-7
645.337	-4
645.37	3
645.404	10
645.438	13
645.471	-3
645.505	15
645.539	9
645.572	-16
645.606	-1
645.64	13
645.673	1
645.707	16
645.741	-1
645.774	0
645.808	9
645.842	-2
645.875	3
645.909	3
645.943	2
645.976	18
646.01	16
646.043	16
646.077	1
646.111	15
646.144	7
646.178	24
646.212	-10
646.245	0
646.279	10
646.312	12
646.346	-5
646.38	0
646.413	2
646.447	3
646.48	9
646.514	5
646.547	11
646.581	-15
646.615	-7
646.648	3
646.682	-2
646.715	-2
646.749	13
646.782	-4
646.816	-12
646.85	6
646.883	-12
646.917	5
646.95	-10
646.984	-13
647.017	7
647.051	8
647.084	10
647.118	-2
647.151	-10
647.185	1
647.218	2
647.252	1
647.285	-5
647.319	-16
647.353	2
647.386	10
647.42	0
647.453	0
647.487	13
647.52	-9
647.553	-10
647.587	-2
647.62	-6
647.654	10
647.687	11
647.721	1
647.754	-11
647.788	1
647.821	-6
647.855	13
647.888	12
647.922	11
647.955	14
647.989	3
648.022	17
648.055	13
648.089	4
648.122	11
648.156	-12
648.189	-7
648.223	-1
648.256	11
648.29	9
648.323	12
648.356	12
648.39	-7
648.423	-2
648.457	3
648.49	14
648.523	9
648.557	6
648.59	1
648.624	10
648.657	-6
648.69	9
648.724	-3
648.757	-2
648.791	-2
648.824	14
648.857	15
648.891	4
648.924	5
648.957	15
648.991	-6
649.024	7
649.057	-3
649.091	-12
649.124	12
649.158	15
649.191	22
649.224	13
649.258	10
649.291	8
649.324	0
649.358	7
649.391	6
649.424	0
649.458	-8
649.491	4
649.524	-8
649.557	-21
649.591	-4
649.624	13
649.657	-4
649.691	-2
649.724	-5
649.757	-9
649.791	1
649.824	26
649.857	5
649.89	1
649.924	-5
649.957	1
649.99	-32
650.023	6
650.057	4
650.09	4
650.123	9
650.157	12
650.19	0
650.223	-1
650.256	4
650.29	0
650.323	-6
650.356	19
650.389	3
650.423	-5
650.456	-10
650.489	-1
650.522	19
650.555	25
650.589	15
650.622	10
650.655	5
650.688	-12
650.721	1
650.755	-9
650.788	21
650.821	-1
650.854	8
650.887	3
650.921	8
650.954	-3
650.987	17
651.02	-1
651.053	-1
651.087	-8
651.12	17
651.153	9
651.186	1
651.219	-7
651.252	13
651.286	-6
651.319	3
651.352	9
651.385	11
651.418	14
651.451	6
651.484	-11
651.518	-27
651.551	15
651.584	-2
651.617	17
651.65	-4
651.683	2
651.716	-4
651.749	-9
651.783	-1
651.816	8
651.849	31
651.882	-1
651.915	-4
651.948	-12
651.981	-6
652.014	-15
652.047	3
652.08	8
652.114	1
652.147	4
652.18	7
652.213	6
652.246	-11
652.279	-24
652.312	28
652.345	12
652.378	10
652.411	24
652.444	24
652.477	-5
652.51	-10
652.543	-12
652.576	-2
652.609	-4
652.642	4
652.675	19
652.709	14
652.742	22
652.775	1
652.808	11
652.841	8
652.874	-6
652.907	-4
652.94	-6
652.973	7
653.006	-7
653.039	-2
653.072	-3
653.105	-4
653.138	-10
653.171	1
653.204	-4
653.237	5
653.27	-12
653.303	-15
653.336	-15
653.368	-8
653.401	-5
653.434	8
653.467	13
653.5	-19
653.533	-32
653.566	7
653.599	10
653.632	1
653.665	-10
653.698	-3
653.731	-11
653.764	-6
653.797	-8
653.83	-5
653.863	4
653.896	5
653.929	7
653.961	9
653.994	5
654.027	0
654.06	6
654.093	8
654.126	1
654.159	-7
654.192	3
654.225	-2
654.258	1
654.29	-10
654.323	8
654.356	8
654.389	-9
654.422	-11
654.455	-12
654.488	3
654.521	-7
654.553	-4
654.586	10
654.619	-1
654.652	3
654.685	18
654.718	31
654.751	20
654.783	-6
654.816	15
654.849	-3
654.882	-3
654.915	-12
654.948	8
654.98	-6
655.013	-6
655.046	-4
655.079	-17
655.112	7
655.144	-21
655.177	3
655.21	19
655.243	8
655.276	7
655.308	-6
655.341	-4
655.374	13
655.407	-7
655.44	7
655.472	6
655.505	-4
655.538	7
655.571	2
655.603	4
655.636	17
655.669	11
655.702	5
655.734	-5
655.767	-8
655.8	21
655.833	16
655.865	11
655.898	3
655.931	16
655.964	22
655.996	27
656.029	48
656.062	28
656.095	52
656.127	100
656.16	210
656.193	624
656.225	960
656.258	569
656.291	211
656.324	160
656.356	357
656.389	777
656.422	693
656.454	231
656.487	83
656.52	42
656.552	14
656.585	4
656.618	16
656.65	17
656.683	-4
656.716	5
656.748	4
656.781	-4
656.814	-2
656.846	15
656.879	-3
656.912	7
656.944	-9
656.977	0
657.01	2
657.042	9
657.075	13
657.108	4
657.14	-2
657.173	5
657.205	26
657.238	-3
657.271	12
657.303	-4
657.336	-4
657.369	3
657.401	-17
657.434	-5
657.466	7
657.499	-1
657.532	-6
657.564	12
657.597	8
657.629	9
657.662	-12
657.694	-11
657.727	-20
657.76	11
657.792	0
657.825	-4
657.857	0
657.89	18
657.922	1
657.955	-12
657.987	2
658.02	-1
658.053	9
658.085	18
658.118	8
658.15	11
658.183	12
658.215	5
658.248	-4
658.28	7
658.313	17
658.345	30
658.378	-2
658.41	8
658.443	1
658.475	1
658.508	3
658.54	-3
658.573	9
658.605	-9
658.638	4
658.67	3
658.703	-1
658.735	-17
658.768	-4
658.8	-25
658.833	26
658.865	8
658.898	-3
658.93	1
658.963	-1
658.995	-19
659.028	-8
659.06	-14
659.092	-11
659.125	0
659.157	10
659.19	-17
659.222	-15
659.255	8
659.287	6
659.32	-12
659.352	-8
659.384	2
659.417	3
659.449	3
659.482	-7
659.514	0
659.546	-3
659.579	-3
659.611	11
659.644	0
659.676	5
659.708	-11
659.741	-9
659.773	-2
659.806	0
659.838	12
659.87	5
659.903	-19
659.935	19
659.967	-1
660	12
660.032	-9
660.065	17
660.097	9
660.129	-8
660.162	-13
660.194	1
660.226	2
660.259	11
660.291	-2
660.323	2
660.356	7
660.388	7
660.42	-12
660.453	5
660.485	12
660.517	0
660.55	7
660.582	4
660.614	14
660.647	4
660.679	-4
660.711	21
660.743	-9
660.776	5
660.808	-9
660.84	-3
660.873	-1
660.905	11
660.937	-18
660.969	-3
661.002	13
661.034	20
661.066	2
661.099	4
661.131	12
661.163	0
661.195	-1
661.228	24
661.26	10
661.292	6
661.324	6
661.357	16
661.389	7
661.421	12
661.453	13
661.485	-6
661.518	5
661.55	-19
661.582	-21
661.614	-7
661.647	2
661.679	-5
661.711	14
661.743	-6
661.775	4
661.808	17
661.84	-11
661.872	-4
661.904	-8
661.936	-6
661.969	-18
662.001	-5
662.033	-3
662.065	-6
662.097	10
662.129	4
662.162	-14
662.194	2
662.226	10
662.258	4
662.29	7
662.322	-12
662.355	-8
662.387	19
662.419	1
662.451	-2
662.483	10
662.515	-3
662.547	-7
662.58	-9
662.612	-7
662.644	-3
662.676	-11
662.708	12
662.74	-1
662.772	11
662.804	4
662.836	15
662.869	-5
662.901	5
662.933	-9
662.965	5
662.997	13
663.029	-13
663.061	13
663.093	6
663.125	4
663.157	4
663.189	-4
663.221	7
663.254	-7
663.286	5
663.318	-4
663.35	-12
663.382	-2
663.414	-1
663.446	-8
663.478	-16
663.51	32
663.542	-2
663.574	6
663.606	-19
663.638	-10
663.67	-1
663.702	-14
663.734	-7
663.766	-3
663.798	-15
663.83	10
663.862	22
663.894	18
663.926	-1
663.958	12
663.99	-5
664.022	-4
664.054	0
664.086	-8
664.118	-11
664.15	0
664.182	10
664.214	-8
664.246	2
664.278	7
664.31	7
664.342	12
664.374	3
664.406	0
664.438	-12
664.47	-2
664.502	11
664.534	-6
664.566	-15
664.598	0
664.63	-8
664.662	-2
664.693	7
664.725	-5
664.757	-6
664.789	-13
664.821	7
664.853	-5
664.885	11
664.917	-3
664.949	18
664.981	18
665.013	16
665.045	-8
665.076	2
665.108	6
665.14	4
665.172	4
665.204	-1
665.236	9
665.268	21
665.3	5
665.331	-10
665.363	9
665.395	-5
665.427	-28
665.459	7
665.491	1
665.523	-4
665.555	1
665.586	-4
665.618	2
665.65	-9
665.682	-3
665.714	16
665.746	4
665.777	5
665.809	1
665.841	9
665.873	6
665.905	0
665.937	-2
665.968	14
666	4
666.032	16
666.064	-6
666.096	-22
666.127	5
666.159	21
666.191	7
666.223	18
666.255	19
666.286	5
666.318	6
666.35	-18
666.382	0
666.413	5
666.445	-9
666.477	-19
666.509	-7
666.54	-16
666.572	7
666.604	7
666.636	-2
666.667	19
666.699	14
666.731	-9
666.763	-4
666.794	-4
666.826	4
666.858	-12
666.89	17
666.921	7
666.953	-6
666.985	10
667.017	18
667.048	4
667.08	-9
667.112	-16
667.143	-8
667.175	1
667.207	7
667.238	4
667.27	16
667.302	-16
667.334	-13
667.365	18
667.397	1
667.429	-11
667.46	10
667.492	14
667.524	8
667.555	-8
667.587	-5
667.619	-5
667.65	5
667.682	8
667.714	-1
667.745	-3
667.777	-2
667.808	11
667.84	3
667.872	-12
667.903	10
667.935	-1
667.967	-2
667.998	3
668.03	-4
668.061	4
668.093	-13
668.125	-5
668.156	3
668.188	-5
668.22	-5
668.251	-3
668.283	-7
668.314	-1
668.346	10
668.377	2
668.409	5
668.441	14
668.472	8
668.504	8
668.535	9
668.567	2
668.599	15
668.63	6
668.662	0
668.693	22
668.725	3
668.756	1
668.788	-4
668.819	1
668.851	1
668.882	-10
668.914	-18
668.946	-1
668.977	-11
669.009	-8
669.04	-9
669.072	-12
669.103	2
669.135	5
669.166	3
669.198	-1
669.229	20
669.261	-10
669.292	-7
669.324	-3
669.355	3
669.387	-11
669.418	0
669.45	2
669.481	5
669.513	4
669.544	-4
669.576	-8
669.607	10
669.639	15
669.67	9
669.701	0
669.733	-8
669.764	-1
669.796	-23
669.827	-7
669.859	9
669.89	5
669.922	-4
669.953	1
669.985	7
670.016	7
670.047	3
670.079	1
670.11	4
670.142	-2
670.173	-3
670.204	3
670.236	9
670.267	-3
670.299	-7
670.33	-12
670.362	-10
670.393	-21
670.424	1
670.456	-15
670.487	-1
670.518	-13
670.55	-3
670.581	3
670.613	-20
670.644	-9
670.675	-23
670.707	15
670.738	22
670.769	7
670.801	-8
670.832	-4
670.864	-28
670.895	-7
670.926	-1
670.958	13
670.989	-4
671.02	-26
671.052	2
671.083	10
671.114	-10
671.146	4
671.177	3
671.208	-5
671.24	-19
671.271	-7
671.302	12
671.333	-8
671.365	7
671.396	10
671.427	17
671.459	19
671.49	10
671.521	-13
671.553	0
671.584	1
671.615	-15
671.646	17
671.678	0
671.709	-2
671.74	-7
671.771	-9
671.803	13
671.834	8
671.865	11
671.896	12
671.928	3
671.959	-8
671.99	-5
672.021	-9
672.053	5
672.084	32
672.115	9
672.146	0
672.178	-21
672.209	-9
672.24	-2
672.271	28
672.303	11
672.334	4
672.365	-1
672.396	7
672.427	-5
672.459	21
672.49	26
672.521	20
672.552	18
672.583	5
672.615	-3
672.646	1
672.677	7
672.708	6
672.739	3
672.77	8
672.802	0
672.833	7
672.864	-10
672.895	-3
672.926	2
672.957	-11
672.989	-1
673.02	4
673.051	6
673.082	4
673.113	4
673.144	3
673.175	-2
673.206	9
673.238	0
673.269	-2
673.3	-20
673.331	6
673.362	15
673.393	7
673.424	10
673.455	7
673.487	-9
673.518	9
673.549	-3
673.58	5
673.611	4
673.642	5
673.673	-17
673.704	12
673.735	-13
673.766	-9
673.797	-19
673.828	-6
673.86	-19
673.891	-26
673.922	-20
673.953	-7
673.984	-2
674.015	6
674.046	-4
674.077	-8
674.108	-4
674.139	-11
674.17	12
674.201	-4
674.232	3
674.263	2
674.294	-17
674.325	-19
674.356	-5
674.387	8
674.418	1
674.449	-10
674.48	-4
674.511	14
674.542	4
674.573	-10
674.604	6
674.635	-10
674.666	-2
674.697	0
674.728	-3
674.759	-6
674.79	1
674.821	-3
674.852	-2
674.883	-6
674.914	-1
674.945	7
674.976	-2
675.007	9
675.038	-20
675.069	-24
675.1	-3
675.131	4
675.162	-18
675.193	-7
675.224	0
675.254	-10
675.285	3
675.316	12
675.347	-5
675.378	-4
675.409	-5
675.44	7
675.471	-5
675.502	0
675.533	-4
675.564	-19
675.595	-4
675.625	23
675.656	4
675.687	-2
675.718	-15
675.749	4
675.78	1
675.811	-14
675.842	2
675.873	8
675.903	2
675.934	-15
675.965	-15
675.996	1
676.027	10
676.058	0
676.089	-17
676.119	11
676.15	-6
676.181	2
676.212	4
676.243	-1
676.274	0
676.304	16
676.335	-16
676.366	8
676.397	4
676.428	9
676.459	-1
676.489	-11
676.52	4
676.551	5
676.582	-24
676.613	-6
676.643	-2
676.674	17
676.705	5
676.736	0
676.767	7
676.797	2
676.828	4
676.859	-7
676.89	-3
676.92	-5
676.951	11
676.982	6
677.013	-2
677.044	7
677.074	-6
677.105	-25
677.136	-1
677.167	-6
677.197	-5
677.228	-13
677.259	-11
677.289	-13
677.32	-3
677.351	-11
677.382	-12
677.412	-11
677.443	-3
677.474	4
677.505	-15
677.535	4
677.566	-7
677.597	-8
677.627	-7
677.658	-5
677.689	-7
677.72	6
677.75	0
677.781	17
677.812	3
677.842	10
677.873	0
677.904	0
677.934	6
677.965	-9
677.996	-18
678.026	-3
678.057	-3
678.088	-15
678.118	-9
678.149	-3
678.18	-1
678.21	-10
678.241	-2
678.272	-8
678.302	0
678.333	10
678.363	12
678.394	7
678.425	9
678.455	-4
678.486	9
678.517	-4
678.547	7
678.578	1
678.608	-16
678.639	5
678.67	14
678.7	-15
678.731	-25
678.761	1
678.792	7
678.823	10
678.853	1
678.884	-1
678.914	6
678.945	3
678.975	-8
679.006	7
679.037	-8
679.067	-6
679.098	-9
679.128	-15
679.159	-6
679.189	-1
679.22	-15
679.25	3
679.281	-10
679.312	-5
679.342	5
679.373	16
679.403	19
679.434	16
679.464	-7
679.495	-8
679.525	1
679.556	1
679.586	4
679.617	21
679.647	2
679.678	11
679.708	9
679.739	2
679.769	4
679.8	6
679.83	-2
679.861	10
679.891	-14
679.922	-8
679.952	-5
679.983	4
680.013	6
680.044	-9
680.074	11
680.105	17
680.135	3
680.165	12
680.196	-9
680.226	11
680.257	9
680.287	-1
680.318	-3
680.348	-23
680.379	14
680.409	3
680.439	2
680.47	5
680.5	7
680.531	13
680.561	7
680.592	7
680.622	9
680.652	15
680.683	14
680.713	-6
680.744	-26
680.774	-15
680.804	8
680.835	0
680.865	-19
680.896	14
680.926	26
680.956	13
680.987	2
681.017	3
681.047	6
681.078	-10
681.108	5
681.139	5
681.169	-7
681.199	3
681.23	-2
681.26	1
681.29	-2
681.321	-19
681.351	13
681.381	-3
681.412	11
681.442	0
681.472	18
681.503	-5
681.533	-13
681.563	-3
681.594	-11
681.624	-1
681.654	4
681.685	-5
681.715	12
681.745	6
681.775	6
681.806	3
681.836	4
681.866	-15
681.897	-5
681.927	5
681.957	-33
681.987	1
682.018	-2
682.048	5
682.078	-2
682.109	29
682.139	3
682.169	-8
682.199	4
682.23	-18
682.26	-9
682.29	-20
682.32	-10
682.351	0
682.381	-7
682.411	4
682.441	8
682.472	1
682.502	-8
682.532	-8
682.562	5
682.592	13
682.623	11
682.653	7
682.683	-19
682.713	13
682.743	3
682.774	-11
682.804	-6
682.834	10
682.864	-4
682.894	3
682.925	4
682.955	0
682.985	-8
683.015	-7
683.045	2
683.076	-11
683.106	0
683.136	-7
683.166	-9
683.196	-8
683.226	-4
683.257	0
683.287	1
683.317	-25
683.347	-1
683.377	10
683.407	15
683.437	-4
683.468	7
683.498	-12
683.528	1
683.558	6
683.588	-5
683.618	-4
683.648	6
683.678	-15
683.708	3
683.739	4
683.769	-21
683.799	-6
683.829	-22
683.859	6
683.889	7
683.919	-10
683.949	5
683.979	8
684.009	5
684.039	-8
684.07	-20
684.1	0
684.13	8
684.16	8
684.19	5
684.22	3
684.25	5
684.28	2
684.31	20
684.34	20
684.37	5
684.4	2
684.43	14
684.46	11
684.49	1
684.52	21
684.55	15
684.58	2
684.61	14
684.64	9
684.67	8
684.7	2
684.73	-2
684.76	5
684.79	7
684.82	-10
684.85	-19
684.88	4
684.91	-1
684.94	5
684.97	-16
685	1
685.03	14
685.06	-3
685.09	-1
685.12	25
685.15	-1
685.18	7
685.21	10
685.24	22
685.27	16
685.3	8
685.33	-3
685.36	22
685.39	-11
685.42	2
685.45	20
685.48	8
685.51	8
685.54	21
685.569	7
685.599	-2
685.629	5
685.659	-8
685.689	-3
685.719	-2
685.749	-9
685.779	-4
685.809	7
685.839	2
685.869	5
685.898	11
685.928	-2
685.958	-1
685.988	8
686.018	-19
686.048	-7
686.078	-1
686.108	5
686.137	3
686.167	18
686.197	2
686.227	-1
686.257	27
686.287	2
686.317	10
686.346	6
686.376	-3
686.406	-5
686.436	12
686.466	-9
686.496	10
686.525	-4
686.555	-17
686.585	14
686.615	29
686.645	17
686.675	4
686.704	7
686.734	-2
686.764	11
686.794	10
686.824	5
686.853	2
686.883	15
686.913	11
686.943	-9
686.973	-9
687.002	-3
687.032	6
687.062	-9
687.092	12
687.121	-6
687.151	10
687.181	-1
687.211	-1
687.24	0
687.27	13
687.3	-7
687.33	-8
687.359	-21
687.389	3
687.419	7
687.449	3
687.478	7
687.508	6
687.538	15
687.568	-9
687.597	-15
687.627	18
687.657	4
687.686	10
687.716	19
687.746	3
687.776	2
687.805	0
687.835	5
687.865	36
687.894	5
687.924	8
687.954	3
687.983	7
688.013	14
688.043	8
688.072	13
688.102	8
688.132	15
688.161	1
688.191	6
688.221	13
688.25	-13
688.28	7
688.31	8
688.339	3
688.369	-10
688.399	-5
688.428	-5
688.458	2
688.488	-5
688.517	-2
688.547	-6
688.576	37
688.606	-8
688.636	-8
688.665	9
688.695	22
688.725	14
688.754	21
688.784	5
688.813	19
688.843	8
688.873	-3
688.902	-5
688.932	-5
688.961	2
688.991	17
689.02	-2
689.05	-15
689.08	13
689.109	20
689.139	3
689.168	7
689.198	4
689.227	6
689.257	3
689.287	3
689.316	7
689.346	-5
689.375	-6
689.405	0
689.434	-9
689.464	3
689.493	-11
689.523	-6
689.552	-7
689.582	6
689.611	-4
689.641	10
689.67	4
689.7	10
689.73	15
689.759	26
689.789	11
689.818	-16
689.848	-5
689.877	16
689.906	1
689.936	5
689.965	3
689.995	7
690.024	9
690.054	-4
690.083	3
690.113	7
690.142	2
690.172	-3
690.201	12
690.231	-1
690.26	1
690.29	3
690.319	12
690.348	3
690.378	7
690.407	-1
690.437	3
690.466	2
690.496	3
690.525	16
690.555	-6
690.584	13
690.613	7
690.643	13
690.672	23
690.702	10
690.731	9
690.76	19
690.79	8
690.819	-12
690.849	6
690.878	12
690.907	1
690.937	14
690.966	12
690.996	-1
691.025	-1
691.054	15
691.084	12
691.113	1
691.142	3
691.172	8
691.201	9
691.23	-18
691.26	6
691.289	-2
691.319	-5
691.348	-6
691.377	7
691.407	-6
691.436	12
691.465	-17
691.495	0
691.524	-5
691.553	-4
691.583	-8
691.612	13
691.641	-6
691.67	-15
691.7	1
691.729	-12
691.758	-11
691.788	3
691.817	6
691.846	-11
691.876	9
691.905	12
691.934	-6
691.963	0
691.993	2
692.022	1
692.051	-23
692.081	5
692.11	10
692.139	10
692.168	8
692.198	15
692.227	20
692.256	5
692.285	3
692.315	-3
692.344	-1
692.373	-12
692.402	-19
692.432	-4
692.461	-5
692.49	0
692.519	-5
692.548	0
692.578	12
692.607	-15
692.636	-2
692.665	15
692.694	-5
692.724	1
692.753	-6
692.782	13
692.811	4
692.84	-1
692.87	3
692.899	10
692.928	0
692.957	-4
692.986	17
693.016	4
693.045	6
693.074	10
693.103	5
693.132	6
693.161	17
693.191	11
693.22	-8
693.249	-16
693.278	-4
693.307	12
693.336	-13
693.365	-24
693.395	16
693.424	3
693.453	16
693.482	4
693.511	6
693.54	-5
693.569	5
693.598	4
693.628	24
693.657	6
693.686	9
693.715	9
693.744	1
693.773	8
693.802	24
693.831	1
693.86	1
693.889	-4
693.919	9
693.948	6
693.977	5
694.006	4
694.035	-5
694.064	-5
694.093	1
694.122	-8
694.151	-10
694.18	9
694.209	9
694.238	23
694.267	25
694.296	7
694.325	1
694.354	11
694.383	9
694.412	5
694.441	0
694.471	8
694.5	-19
694.529	9
694.558	27
694.587	8
694.616	-4
694.645	-7
694.674	14
694.703	21
694.732	4
694.761	-2
694.79	-6
694.819	-17
694.848	19
694.877	21
694.906	25
694.935	0
694.963	28
694.992	1
695.021	17
695.05	12
695.079	4
695.108	-12
695.137	16
695.166	-2
695.195	-19
695.224	13
695.253	18
695.282	2
695.311	5
695.34	14
695.369	12
695.398	0
695.427	4
695.456	11
695.485	4
695.513	-12
695.542	-2
695.571	-9
695.6	11
695.629	5
695.658	0
695.687	13
695.716	6
695.745	26
695.774	-12
695.802	-11
695.831	8
695.86	21
695.889	12
695.918	-1
695.947	-2
695.976	1
696.005	3
696.033	0
696.062	10
696.091	6
696.12	6
696.149	9
696.178	-3
696.207	4
696.235	-17
696.264	5
696.293	-7
696.322	19
696.351	13
696.38	-2
696.408	-2
696.437	2
696.466	10
696.495	28
696.524	24
696.553	15
696.581	3
696.61	-15
696.639	4
696.668	8
696.697	-11
696.725	14
696.754	5
696.783	-4
696.812	0
696.84	18
696.869	13
696.898	10
696.927	3
696.956	35
696.984	-5
697.013	9
697.042	10
697.071	8
697.099	13
697.128	-8
697.157	1
697.186	-4
697.214	1
697.243	-1
697.272	3
697.301	20
697.329	16
697.358	3
697.387	18
697.415	18
697.444	4
697.473	5
697.502	-11
697.53	11
697.559	4
697.588	-2
697.616	-4
697.645	-8
697.674	8
697.703	-3
697.731	23
697.76	13
697.789	8
697.817	12
697.846	11
697.875	10
697.903	22
697.932	2
697.961	3
697.989	1
698.018	7
698.047	-3
698.075	6
698.104	2
698.133	-2
698.161	-10
698.19	-6
698.218	-1
698.247	2
698.276	-3
698.304	8
698.333	5
698.362	24
698.39	4
698.419	-2
698.447	-10
698.476	2
698.505	8
698.533	4
698.562	11
698.591	8
698.619	-9
698.648	10
698.676	13
698.705	21
698.733	-4
698.762	9
698.791	5
698.819	9
698.848	4
698.876	21
698.905	9
698.933	7
698.962	-2
698.991	6
699.019	11
699.048	4
699.076	6
699.105	-23
699.133	1
699.162	17
699.19	25
699.219	6
699.248	8
699.276	6
699.305	8
699.333	9
699.362	6
699.39	-5
699.419	2
699.447	0
699.476	5
699.504	2
699.533	2
699.561	-1
699.59	14
699.618	-8
699.647	3
699.675	-9
699.704	7
699.732	8
699.761	7
699.789	-9
699.818	9
699.846	-6
699.874	-15
699.903	0
699.931	6
699.96	12
699.988	-7
700.017	-12
700.045	0
700.074	-3
700.102	-12
700.13	1
700.159	7
700.187	1
700.216	-3
700.244	-11
700.273	-11
700.301	-3
700.329	2
700.358	5
700.386	5
700.415	3
700.443	5
700.472	-6
700.5	6
700.528	-6
700.557	0
700.585	-1
700.614	-4
700.642	11
700.67	8
700.699	21
700.727	-12
700.755	1
700.784	-1
700.812	9
700.841	12
700.869	-10
700.897	-9
700.926	0
700.954	9
700.982	8
701.011	3
701.039	2
701.067	14
701.096	13
701.124	-5
701.152	-17
701.181	4
701.209	-1
701.237	3
701.266	-6
701.294	-8
701.322	4
701.351	0
701.379	-5
701.407	-8
701.435	0
701.464	17
701.492	22
701.52	-1
701.549	11
701.577	0
701.605	-8
701.634	2
701.662	13
701.69	-5
701.718	3
701.747	9
701.775	2
701.803	-1
701.831	17
701.86	-6
701.888	4
701.916	5
701.944	1
701.973	2
702.001	-19
702.029	-5
702.057	-16
702.086	-13
702.114	-3
702.142	2
702.17	-2
702.199	4
702.227	-4
702.255	3
702.283	0
702.311	5
702.34	-3
702.368	-11
702.396	9
702.424	-9
702.452	-2
702.481	-2
702.509	4
702.537	-6
702.565	-1
702.593	-24
702.621	-5
702.65	0
702.678	26
702.706	11
702.734	11
702.762	4
702.79	-4
702.819	-8
702.847	6
702.875	8
702.903	-2
702.931	-12
702.959	3
702.988	3
703.016	-4
703.044	7
703.072	-3
703.1	-4
703.128	9
703.156	-4
703.184	9
703.212	25
703.241	-1
703.269	6
703.297	-2
703.325	3
703.353	-4
703.381	2
703.409	-1
703.437	-7
703.465	6
703.493	-4
703.522	13
703.55	6
703.578	8
703.606	4
703.634	-1
703.662	-3
703.69	-5
703.718	4
703.746	21
703.774	-7
703.802	12
703.83	-4
703.858	0
703.886	-20
703.914	-11
703.942	21
703.97	3
703.998	-16
704.027	5
704.055	12
704.083	3
704.111	5
704.139	5
704.167	4
704.195	13
704.223	1
704.251	-3
704.279	9
704.307	-5
704.335	-21
704.363	12
704.391	-2
704.419	11
704.447	-10
704.475	-4
704.503	-11
704.531	5
704.558	13
704.586	7
704.614	-7
704.642	-11
704.67	-7
704.698	-8
704.726	10
704.754	-1
704.782	5
704.81	-7
704.838	23
704.866	2
704.894	-12
704.922	-14
704.95	5
704.978	1
705.006	1
705.034	26
705.061	4
705.089	3
705.117	-2
705.145	-8
705.173	3
705.201	6
705.229	16
705.257	3
705.285	-3
705.313	-5
705.34	-9
705.368	-2
705.396	8
705.424	9
705.452	-6
705.48	-13
705.508	8
705.536	7
705.563	12
705.591	14
705.619	10
705.647	-6
705.675	12
705.703	-4
705.731	-10
705.758	3
705.786	5
705.814	25
705.842	3
705.87	8
705.898	13
705.925	7
705.953	15
705.981	16
706.009	12
706.037	2
706.065	6
706.092	1
706.12	-1
706.148	-12
706.176	-5
706.204	-4
706.231	0
706.259	5
706.287	-11
706.315	19
706.342	-7
706.37	16
706.398	-3
706.426	-13
706.454	-9
706.481	2
706.509	11
706.537	2
706.565	-6
706.592	1
706.62	1
706.648	4
706.676	-18
706.703	-8
706.731	2
706.759	-2
706.787	5
706.814	-3
706.842	2
706.87	6
706.897	1
706.925	-3
706.953	17
706.981	4
707.008	12
707.036	-1
707.064	0
707.091	-16
707.119	15
707.147	-3
707.174	-5
707.202	17
707.23	-8
707.258	11
707.285	-28
707.313	1
707.341	3
707.368	-5
707.396	-7
707.424	10
707.451	20
707.479	0
707.507	9
707.534	-3
707.562	5
707.59	9
707.617	-13
707.645	7
707.672	-2
707.7	9
707.728	10
707.755	15
707.783	2
707.811	4
707.838	1
707.866	9
707.893	3
707.921	7
707.949	-12
707.976	7
708.004	2
708.031	-6
708.059	-4
708.087	-12
708.114	-11
708.142	-17
708.169	-4
708.197	-19
708.225	-9
708.252	-2
708.28	12
708.307	-5
708.335	0
708.362	-3
708.39	4
708.418	18
708.445	5
708.473	-19
708.5	-23
708.528	11
708.555	-14
708.583	0
708.61	-5
708.638	7
708.665	-19
708.693	5
708.72	-1
708.748	-18
708.776	-5
708.803	13
708.831	2
708.858	-3
708.886	-8
708.913	2
708.941	-11
708.968	18
708.996	-13
709.023	34
709.051	-15
709.078	-8
709.105	8
709.133	7
709.16	10
709.188	13
709.215	10
709.243	4
709.27	-15
709.298	-1
709.325	-1
709.353	0
709.38	4
709.408	13
709.435	4
709.462	-11
709.49	-4
709.517	-14
709.545	4
709.572	-5
709.6	-3
709.627	-8
709.655	-2
709.682	1
709.709	-4
709.737	-6
709.764	-4
709.792	15
709.819	7
709.846	-10
709.874	2
709.901	19
709.929	21
709.956	16
709.983	-9
710.011	-5
710.038	6
710.066	17
710.093	13
710.12	-2
710.148	1
710.175	-6
710.202	-15
710.23	3
710.257	-9
710.284	-4
710.312	6
710.339	-18
710.366	-12
710.394	3
710.421	1
710.448	6
710.476	-16
710.503	-15
710.53	21
710.558	22
710.585	1
710.612	2
710.64	9
710.667	5
710.694	-2
710.722	4
710.749	0
710.776	8
710.804	13
710.831	-7
710.858	-3
710.885	-3
710.913	-12
710.94	15
710.967	9
710.995	14
711.022	2
711.049	7
711.076	-12
711.104	12
711.131	-1
711.158	12
711.185	19
711.213	-16
711.24	-16
711.267	2
711.294	5
711.322	13
711.349	-2
711.376	-2
711.403	15
711.431	-7
711.458	-9
711.485	-22
711.512	3
711.54	1
711.567	-5
711.594	-5
711.621	0
711.648	8
711.676	17
711.703	1
711.73	-4
711.757	-2
711.784	-6
711.812	-2
711.839	-3
711.866	1
711.893	2
711.92	17
711.947	1
711.975	4
712.002	0
712.029	7
712.056	6
712.083	7
712.11	-15
712.138	7
712.165	3
712.192	6
712.219	1
712.246	-14
712.273	-5
712.3	-5
712.328	-4
712.355	0
712.382	-6
712.409	18
712.436	0
712.463	9
712.49	17
712.517	11
712.544	-1
712.572	-3
712.599	-11
712.626	-2
712.653	10
712.68	15
712.707	15
712.734	6
712.761	13
712.788	21
712.815	12
712.842	16
712.87	-2
712.897	-5
712.924	2
712.951	4
712.978	21
713.005	37
713.032	8
713.059	15
713.086	-5
713.113	-4
713.14	-2
713.167	5
713.194	21
713.221	-10
713.248	9
713.275	-19
713.302	4
713.329	25
713.356	8
713.383	9
713.41	3
713.437	-14
713.464	-2
713.491	10
713.518	6
713.545	-11
713.572	3
713.599	10
713.626	4
713.653	23
713.68	-6
713.707	-1
713.734	13
713.761	0
713.788	4
713.815	18
713.842	3
713.869	0
713.896	-1
713.923	17
713.95	14
713.977	11
714.004	2
714.031	-5
714.058	-5
714.085	-3
714.112	15
714.139	-3
714.165	-4
714.192	0
714.219	-6
714.246	-14
714.273	-2
714.3	1
714.327	6
714.354	2
714.381	-7
714.408	-4
714.435	-5
714.461	7
714.488	19
714.515	1
714.542	-15
714.569	0
714.596	-7
714.623	-1
714.65	-4
714.677	10
714.703	17
714.73	6
714.757	-7
714.784	0
714.811	-9
714.838	4
714.865	-11
714.891	-5
714.918	-1
714.945	-5
714.972	-8
714.999	20
715.026	1
715.052	16
715.079	-7
715.106	5
715.133	21
715.16	-8
715.187	2
715.213	14
715.24	-4
715.267	-4
715.294	-5
715.321	-11
715.347	-2
715.374	-9
715.401	-8
715.428	0
715.455	-22
715.481	-9
715.508	8
715.535	-4
715.562	1
715.588	-5
715.615	-2
715.642	3
715.669	14
715.695	-3
715.722	-1
715.749	-1
715.776	-6
715.802	11
715.829	20
715.856	0
715.883	0
715.909	-13
715.936	-5
715.963	3
715.99	-20
716.016	-16
716.043	-20
716.07	-5
716.096	-13
716.123	7
716.15	1
716.177	6
716.203	3
716.23	9
716.257	-6
716.283	9
716.31	4
716.337	4
716.363	-5
716.39	-9
716.417	0
716.443	8
716.47	16
716.497	14
716.523	12
716.55	6
716.577	15
716.603	5
716.63	11
716.657	5
716.683	6
716.71	-3
716.737	-7
716.763	-1
716.79	0
716.817	12
716.843	-3
716.87	-5
716.897	13
716.923	35
716.95	5
716.976	-3
717.003	5
717.03	9
717.056	13
717.083	3
717.109	-3
717.136	4
717.163	-9
717.189	-12
717.216	3
717.242	1
717.269	4
717.296	16
717.322	12
717.349	5
717.375	6
717.402	-1
717.428	-1
717.455	11
717.481	-8
717.508	8
717.535	6
717.561	5
717.588	-5
717.614	-3
717.641	-2
717.667	15
717.694	13
717.72	-9
717.747	-2
717.773	-14
717.8	13
717.826	7
717.853	5
717.88	7
717.906	11
717.933	20
717.959	-2
717.986	0
718.012	6
718.039	22
718.065	14
718.092	9
718.118	-8
718.144	1
718.171	11
718.197	14
718.224	-1
718.25	3
718.277	-1
718.303	-1
718.33	4
718.356	-13
718.383	-12
718.409	-4
718.436	12
718.462	-2
718.489	-1
718.515	1
718.541	18
718.568	18
718.594	7
718.621	-4
718.647	0
718.674	10
718.7	10
718.726	-10
718.753	-7
718.779	12
718.806	6
718.832	10
718.858	9
718.885	9
718.911	5
718.938	10
718.964	-7
718.99	8
719.017	12
719.043	1
719.07	5
719.096	-8
719.122	4
719.149	1
719.175	16
719.201	8
719.228	4
719.254	2
719.281	-8
719.307	3
719.333	1
719.36	3
719.386	5
719.412	10
719.439	-1
719.465	-9
719.491	-12
719.518	4
719.544	11
719.57	14
719.597	0
719.623	-10
719.649	-7
719.675	5
719.702	1
719.728	8
719.754	-7
719.781	-4
719.807	-4
719.833	17
719.86	7
719.886	7
719.912	15
719.938	-6
719.965	5
719.991	5
720.017	3
720.044	-7
720.07	-10
720.096	9
720.122	12
720.149	19
720.175	22
720.201	3
720.227	-6
720.254	0
720.28	-9
720.306	-4
720.332	-5
720.359	-5
720.385	0
720.411	1
720.437	-7
720.463	-8
720.49	0
720.516	-11
720.542	-5
720.568	-1
720.595	1
720.621	-13
720.647	21
720.673	15
720.699	0
720.725	18
720.752	20
720.778	2
720.804	8
720.83	5
720.856	-3
720.883	-4
720.909	0
720.935	-2
720.961	16
720.987	4
721.013	11
721.04	-7
721.066	-3
721.092	-7
721.118	17
721.144	8
721.17	-4
721.196	-5
721.223	-13
721.249	-3
721.275	14
721.301	12
721.327	15
721.353	-14
721.379	-10
721.405	0
721.432	11
721.458	-9
721.484	1
721.51	-13
721.536	11
721.562	13
721.588	-2
721.614	-10
721.64	-6
721.666	15
721.693	-12
721.719	-12
721.745	-12
721.771	5
721.797	-2
721.823	11
721.849	28
721.875	10
721.901	3
721.927	-1
721.953	4
721.979	23
722.005	3
722.031	-7
722.057	-5
722.083	12
722.109	3
722.135	12
722.161	0
722.187	-2
722.214	-8
722.24	-10
722.266	4
722.292	12
722.318	2
722.344	-3
722.37	7
722.396	5
722.422	5
722.448	-2
722.474	-16
722.5	5
722.526	-1
722.552	-11
722.578	7
722.603	4
722.629	4
722.655	8
722.681	4
722.707	3
722.733	-3
722.759	-15
722.785	-16
722.811	6
722.837	22
722.863	10
722.889	4
722.915	1
722.941	-7
722.967	-1
722.993	8
723.019	3
723.045	7
723.071	-9
723.097	-4
723.122	-8
723.148	-13
723.174	-8
723.2	2
723.226	-1
723.252	10
723.278	3
723.304	0
723.33	9
723.356	-5
723.381	-12
723.407	-1
723.433	23
723.459	0
723.485	5
723.511	0
723.537	-3
723.563	4
723.588	3
723.614	4
723.64	14
723.666	7
723.692	17
723.718	-4
723.744	0
723.769	6
723.795	4
723.821	16
723.847	1
723.873	5
723.899	3
723.924	-2
723.95	-13
723.976	-19
724.002	3
724.028	12
724.053	-8
724.079	-8
724.105	-1
724.131	15
724.157	4
724.182	8
724.208	0
724.234	0
724.26	-12
724.286	-2
724.311	1
724.337	-20
724.363	-10
724.389	10
724.415	4
724.44	30
724.466	-7
724.492	-8
724.518	1
724.543	-3
724.569	-1
724.595	-3
724.621	-9
724.646	0
724.672	-8
724.698	4
724.723	-9
724.749	-2
724.775	5
724.801	5
724.826	1
724.852	5
724.878	-18
724.904	-26
724.929	-1
724.955	-11
724.981	8
725.006	11
725.032	13
725.058	5
725.083	-5
725.109	-5
725.135	-7
725.161	0
725.186	13
725.212	2
725.238	4
725.263	-1
725.289	-4
725.315	-16
725.34	-4
725.366	1
725.392	-2
725.417	5
725.443	11
725.468	11
725.494	6
725.52	19
725.545	4
725.571	4
725.597	-11
725.622	-5
725.648	-6
725.674	9
725.699	13
725.725	5
725.75	17
725.776	-2
725.802	0
725.827	12
725.853	4
725.878	-1
725.904	-11
725.93	-19
725.955	-13
725.981	-16
726.006	-1
726.032	14
726.057	-16
726.083	-21
726.109	-5
726.134	6
726.16	-3
726.185	-5
726.211	2
726.236	3
726.262	7
726.288	8
726.313	10
726.339	21
726.364	23
726.39	7
726.415	-7
726.441	-7
726.466	-11
726.492	-9
726.517	-1
726.543	7
726.568	-3
726.594	7
726.619	2
726.645	8
726.67	-19
726.696	-2
726.721	-9
726.747	-8
726.772	1
726.798	1
726.823	2
726.849	-9
726.874	7
726.9	8
726.925	13
726.951	1
726.976	5
727.002	-11
727.027	-3
727.053	23
727.078	14
727.104	4
727.129	-9
727.155	4
727.18	13
727.205	4
727.231	4
727.256	9
727.282	10
727.307	8
727.333	5
727.358	0
727.383	13
727.409	-12
727.434	12
727.46	-7
727.485	-13
727.511	1
727.536	-17
727.561	-3
727.587	-12
727.612	-18
727.637	4
727.663	-13
727.688	17
727.714	-16
727.739	-4
727.764	9
727.79	1
727.815	5
727.841	11
727.866	7
727.891	4
727.917	-9
727.942	-24
727.967	-10
727.993	-16
728.018	15
728.043	6
728.069	-8
728.094	7
728.119	-3
728.145	16
728.17	5
728.195	-7
728.221	10
728.246	3
728.271	0
728.297	4
728.322	-4
728.347	5
728.373	-2
728.398	2
728.423	-3
728.448	8
728.474	-4
728.499	15
728.524	-17
728.55	-24
728.575	-8
728.6	4
728.625	1
728.651	3
728.676	-1
728.701	4
728.727	3
728.752	-5
728.777	3
728.802	3
728.828	-1
728.853	13
728.878	-3
728.903	-8
728.929	1
728.954	-13
728.979	14
729.004	-2
729.03	-2
729.055	1
729.08	-9
729.105	0
729.13	15
729.156	22
729.181	9
729.206	-19
729.231	-10
729.256	-1
729.282	5
729.307	-14
729.332	0
729.357	1
729.382	-1
729.408	6
729.433	-2
729.458	23
729.483	-6
729.508	11
729.533	4
729.559	2
729.584	-6
729.609	18
729.634	8
729.659	4
729.684	3
729.71	11
729.735	4
729.76	-1
729.785	7
729.81	12
729.835	-1
729.86	-6
729.886	4
729.911	-7
729.936	-4
729.961	0
729.986	-13
730.011	13
730.036	-4
730.061	3
730.086	9
730.112	13
730.137	24
730.162	9
730.187	-20
730.212	13
730.237	-3
730.262	0
730.287	1
730.312	11
730.337	-3
730.362	21
730.387	7
730.413	3
730.438	-5
730.463	2
730.488	-8
730.513	3
730.538	-1
730.563	24
730.588	18
730.613	1
730.638	-10
730.663	-9
730.688	8
730.713	0
730.738	-3
730.763	12
730.788	-2
730.813	16
730.838	4
730.863	7
730.888	0
730.913	-1
730.938	-19
730.963	-4
730.988	11
731.013	7
731.038	-5
731.063	-10
731.088	9
731.113	-2
731.138	-6
731.163	-16
731.188	-8
731.213	9
731.238	16
731.263	-4
731.288	-1
731.313	2
731.338	-2
731.363	0
731.388	11
731.413	-17
731.438	-5
731.463	7
731.487	3
731.512	6
731.537	2
731.562	-3
731.587	10
731.612	-11
731.637	-18
731.662	7
731.687	0
731.712	-7
731.737	17
731.762	1
731.786	11
731.811	3
731.836	21
731.861	2
731.886	-3
731.911	6
731.936	8
731.961	-17
731.986	-15
732.01	2
732.035	4
732.06	7
732.085	-13
732.11	-5
732.135	-6
732.16	4
732.184	0
732.209	-3
732.234	-7
732.259	4
732.284	22
732.309	1
732.334	-1
732.358	-5
732.383	-13
732.408	-6
732.433	-1
732.458	-7
732.482	6
732.507	-4
732.532	6
732.557	8
732.582	-2
732.607	-2
732.631	-19
732.656	0
732.681	5
732.706	1
732.73	9
732.755	-10
732.78	-15
732.805	7
732.83	-2
732.854	-1
732.879	7
732.904	-7
732.929	-6
732.953	9
732.978	-1
733.003	-9
733.028	-1
733.052	5
733.077	-4
733.102	15
733.127	-5
733.151	-12
733.176	-11
733.201	-13
733.226	-7
733.25	-8
733.275	4
733.3	3
733.324	14
733.349	17
733.374	9
733.399	-5
733.423	3
733.448	-7
733.473	-2
733.497	1
733.522	17
733.547	20
733.571	4
733.596	14
733.621	17
733.646	-3
733.67	17
733.695	-5
733.72	15
733.744	19
733.769	-6
733.794	7
733.818	5
733.843	0
733.867	1
733.892	5
733.917	0
733.941	-4
733.966	-1
733.991	-2
734.015	10
734.04	1
734.065	25
734.089	7
734.114	-11
734.138	-1
734.163	-5
734.188	10
734.212	12
734.237	19
734.261	0
734.286	4
734.311	17
734.335	15
734.36	4
734.384	-2
734.409	3
734.434	-18
734.458	1
734.483	-3
734.507	-21
734.532	-3
734.556	-8
734.581	-3
734.606	9
734.63	5
734.655	-1
734.679	4
734.704	-17
734.728	-8
734.753	0
734.777	12
734.802	-1
734.826	3
734.851	-8
734.876	21
734.9	23
734.925	20
734.949	7
734.974	-1
734.998	-3
735.023	-13
735.047	-9
735.072	17
735.096	0
735.121	7
735.145	0
735.17	4
735.194	12
735.219	-3
735.243	2
735.268	11
735.292	-3
735.317	16
735.341	-15
735.365	-13
735.39	13
735.414	8
735.439	-5
735.463	7
735.488	5
735.512	-3
735.537	-5
735.561	0
735.586	-2
735.61	-3
735.634	-1
735.659	19
735.683	17
735.708	-1
735.732	-9
735.757	-15
735.781	2
735.805	13
735.83	-19
735.854	-2
735.879	14
735.903	19
735.927	22
735.952	-10
735.976	-2
736.001	1
736.025	5
736.049	6
736.074	-2
736.098	-4
736.123	15
736.147	-11
736.171	-5
736.196	8
736.22	-2
736.244	12
736.269	-5
736.293	-1
736.317	-4
736.342	8
736.366	15
736.39	10
736.415	-11
736.439	-5
736.463	3
736.488	0
736.512	-1
736.536	4
736.561	23
736.585	-6
736.609	-2
736.634	-8
736.658	-1
736.682	-3
736.707	4
736.731	-17
736.755	14
736.78	15
736.804	8
736.828	-2
736.852	0
736.877	9
736.901	-4
736.925	1
736.949	0
736.974	3
736.998	-8
737.022	-16
737.047	-7
737.071	-3
737.095	17
737.119	27
737.144	8
737.168	-7
737.192	-1
737.216	13
737.241	9
737.265	1
737.289	-13
737.313	-3
737.337	11
737.362	20
737.386	-1
737.41	-4
737.434	10
737.459	0
737.483	7
737.507	12
737.531	5
737.555	15
737.58	33
737.604	8
737.628	3
737.652	16
737.676	-2
737.701	-9
737.725	-10
737.749	5
737.773	4
737.797	-11
737.821	-1
737.846	3
737.87	13
737.894	0
737.918	8
737.942	-1
737.966	24
737.99	13
738.015	0
738.039	8
738.063	5
738.087	16
738.111	-6
738.135	7
738.159	-4
738.184	16
738.208	5
738.232	1
738.256	19
738.28	8
738.304	12
738.328	7
738.352	-3
738.376	-6
738.4	8
738.425	4
738.449	-2
738.473	8
738.497	1
738.521	4
738.545	3
738.569	3
738.593	8
738.617	7
738.641	9
738.665	0
738.689	12
738.713	0
738.737	20
738.762	11
738.786	11
738.81	0
738.834	5
738.858	-5
738.882	7
738.906	-11
738.93	-2
738.954	15
738.978	5
739.002	-1
739.026	-8
739.05	10
739.074	-6
739.098	27
739.122	16
739.146	-6
739.17	8
739.194	2
739.218	-12
739.242	6
739.266	5
739.29	14
739.314	9
739.338	4
739.362	-1
739.386	7
739.41	-4
739.434	6
739.458	6
739.482	-5
739.506	9
739.53	5
739.554	13
739.577	5
739.601	11
739.625	0
739.649	-3
739.673	-19
739.697	9
739.721	9
739.745	17
739.769	3
739.793	-3
739.817	7
739.841	4
739.865	6
739.889	-6
739.912	13
739.936	5
739.96	6
739.984	19
740.008	-1
740.032	-12
740.056	-7
740.08	8
740.104	9
740.127	15
740.151	11
740.175	10
740.199	12
740.223	52
740.247	12
740.271	4
740.295	-8
740.318	-8
740.342	-6
740.366	14
740.39	10
740.414	9
740.438	-4
740.461	10
740.485	2
740.509	-13
740.533	9
740.557	-12
740.581	-12
740.604	-8
740.628	-10
740.652	12
740.676	-1
740.7	-2
740.723	-1
740.747	3
740.771	-3
740.795	-10
740.819	-2
740.842	15
740.866	11
740.89	25
740.914	5
740.938	-5
740.961	13
740.985	3
741.009	9
741.033	14
741.056	11
741.08	-5
741.104	4
741.128	15
741.151	-4
741.175	-2
741.199	7
741.223	12
741.246	4
741.27	9
741.294	12
741.318	11
741.341	7
741.365	-8
741.389	7
741.413	20
741.436	-1
741.46	0
741.484	4
741.507	-7
741.531	29
741.555	19
741.579	17
741.602	11
741.626	7
741.65	5
741.673	1
741.697	-7
741.721	5
741.744	-19
741.768	-7
741.792	-9
741.815	-2
741.839	4
741.863	11
741.886	15
741.91	11
741.934	9
741.957	-8
741.981	7
742.005	3
742.028	-1
742.052	-18
742.075	4
742.099	8
742.123	1
742.146	-4
742.17	10
742.194	-13
742.217	-14
742.241	-4
742.264	-5
742.288	11
742.312	1
742.335	-9
742.359	-3
742.382	17
742.406	8
742.43	-1
742.453	4
742.477	-1
742.5	11
742.524	-4
742.548	-2
742.571	-3
742.595	2
742.618	3
742.642	8
742.665	11
742.689	-6
742.712	9
742.736	-5
742.76	8
742.783	20
742.807	2
742.83	13
742.854	-7
742.877	15
742.901	7
742.924	-9
742.948	21
742.971	4
742.995	6
743.018	6
743.042	-10
743.065	-9
743.089	-19
743.112	-2
743.136	-5
743.159	-19
743.183	-1
743.206	-5
743.23	-3
743.253	-8
743.277	1
743.3	-2
743.324	2
743.347	-5
743.371	27
743.394	6
743.418	16
743.441	-1
743.465	-1
743.488	9
743.512	-8
743.535	-5
743.558	5
743.582	-13
743.605	8
743.629	-2
743.652	1
743.676	5
743.699	9
743.723	15
743.746	14
743.769	1
743.793	3
743.816	4
743.84	5
743.863	4
743.886	13
743.91	16
743.933	0
743.957	21
743.98	0
744.003	-3
744.027	0
744.05	2
744.074	4
744.097	-18
744.12	5
744.144	-7
744.167	4
744.19	5
744.214	0
744.237	-10
744.26	12
744.284	-3
744.307	-4
744.331	5
744.354	-1
744.377	-21
744.401	-6
744.424	3
744.447	-5
744.471	-20
