Data from HighRes_H2D2_15_04_11_07_2024_HR4C61891__91__15-05-43-542.txt Node

Date: Thu Nov 07 15:05:43 EST 2024
User: crc00042
Spectrometer: HR4C6189
Trigger mode: 4
Integration Time (sec): 1.000000E-1
Scans to average: 1
Electric dark correction enabled: true
Nonlinearity correction enabled: false
Boxcar width: 0
XAxis mode: Wavelengths
Number of Pixels in Spectrum: 3648
>>>>>Begin Spectral Data<<<<<
639.567	-35
639.602	-35
639.636	-35
639.67	-42
639.704	-26
639.738	11
639.773	-2
639.807	-20
639.841	-2
639.875	17
639.909	7
639.943	-25
639.978	-4
640.012	11
640.046	33
640.08	-1
640.114	-5
640.148	-20
640.182	0
640.217	-5
640.251	5
640.285	0
640.319	-14
640.353	-19
640.387	8
640.421	-16
640.455	5
640.49	-8
640.524	-3
640.558	-1
640.592	-8
640.626	-6
640.66	15
640.694	-9
640.728	3
640.762	5
640.796	19
640.83	13
640.865	-8
640.899	10
640.933	-3
640.967	-6
641.001	-4
641.035	8
641.069	1
641.103	-7
641.137	-9
641.171	-19
641.205	3
641.239	-4
641.273	24
641.307	19
641.341	-6
641.375	-12
641.409	-4
641.443	7
641.477	-10
641.511	9
641.545	-6
641.579	-1
641.614	-6
641.648	7
641.682	-6
641.716	3
641.75	9
641.784	1
641.818	-3
641.852	-6
641.886	6
641.919	25
641.953	21
641.987	-14
642.021	-2
642.055	9
642.089	3
642.123	-18
642.157	9
642.191	-5
642.225	7
642.259	-2
642.293	4
642.327	9
642.361	-7
642.395	3
642.429	10
642.463	-8
642.497	14
642.531	3
642.565	-21
642.599	2
642.633	-7
642.666	9
642.7	13
642.734	8
642.768	-15
642.802	17
642.836	16
642.87	-7
642.904	-10
642.938	-1
642.972	11
643.005	18
643.039	12
643.073	-4
643.107	7
643.141	12
643.175	13
643.209	5
643.243	2
643.276	-4
643.31	-10
643.344	-11
643.378	16
643.412	-7
643.446	6
643.48	14
643.513	2
643.547	-22
643.581	2
643.615	26
643.649	6
643.683	-6
643.716	2
643.75	11
643.784	-3
643.818	-7
643.852	-20
643.886	-11
643.919	1
643.953	-3
643.987	9
644.021	10
644.055	12
644.088	-16
644.122	2
644.156	-5
644.19	5
644.224	-11
644.257	17
644.291	23
644.325	17
644.359	1
644.392	9
644.426	13
644.46	4
644.494	10
644.527	1
644.561	6
644.595	14
644.629	-4
644.662	-2
644.696	24
644.73	0
644.764	-12
644.797	1
644.831	-3
644.865	12
644.899	5
644.932	22
644.966	-7
645	5
645.033	22
645.067	1
645.101	-9
645.135	9
645.168	4
645.202	4
645.236	3
645.269	9
645.303	-10
645.337	-27
645.37	-17
645.404	-8
645.438	-5
645.471	-19
645.505	5
645.539	9
645.572	-3
645.606	-11
645.64	7
645.673	8
645.707	25
645.741	-3
645.774	6
645.808	2
645.842	-7
645.875	4
645.909	-20
645.943	-30
645.976	8
646.01	14
646.043	11
646.077	13
646.111	11
646.144	10
646.178	11
646.212	-10
646.245	-10
646.279	-3
646.312	1
646.346	-5
646.38	-10
646.413	16
646.447	10
646.48	-7
646.514	3
646.547	-1
646.581	-2
646.615	-12
646.648	-13
646.682	5
646.715	13
646.749	5
646.782	4
646.816	-8
646.85	-2
646.883	5
646.917	12
646.95	11
646.984	7
647.017	-11
647.051	4
647.084	9
647.118	-4
647.151	-3
647.185	2
647.218	-18
647.252	6
647.285	-2
647.319	-22
647.353	11
647.386	24
647.42	-7
647.453	7
647.487	-6
647.52	13
647.553	1
647.587	15
647.62	-6
647.654	9
647.687	0
647.721	11
647.754	8
647.788	-19
647.821	-27
647.855	-7
647.888	2
647.922	9
647.955	-5
647.989	8
648.022	-6
648.055	8
648.089	2
648.122	25
648.156	5
648.189	-5
648.223	3
648.256	15
648.29	7
648.323	8
648.356	20
648.39	7
648.423	2
648.457	-2
648.49	17
648.523	18
648.557	4
648.59	-16
648.624	6
648.657	24
648.69	26
648.724	12
648.757	6
648.791	8
648.824	13
648.857	16
648.891	12
648.924	13
648.957	13
648.991	-17
649.024	-11
649.057	1
649.091	11
649.124	13
649.158	-2
649.191	34
649.224	-3
649.258	7
649.291	5
649.324	-10
649.358	-2
649.391	-4
649.424	2
649.458	8
649.491	-16
649.524	2
649.557	9
649.591	-15
649.624	6
649.657	-15
649.691	-11
649.724	-5
649.757	15
649.791	-6
649.824	8
649.857	16
649.89	2
649.924	-6
649.957	-8
649.99	-14
650.023	7
650.057	6
650.09	0
650.123	6
650.157	10
650.19	8
650.223	4
650.256	-23
650.29	-9
650.323	4
650.356	-2
650.389	-4
650.423	-15
650.456	4
650.489	-4
650.522	6
650.555	20
650.589	5
650.622	12
650.655	1
650.688	5
650.721	6
650.755	-1
650.788	-3
650.821	6
650.854	6
650.887	9
650.921	7
650.954	15
650.987	4
651.02	-4
651.053	-18
651.087	-6
651.12	23
651.153	5
651.186	-10
651.219	-17
651.252	5
651.286	13
651.319	4
651.352	6
651.385	1
651.418	19
651.451	14
651.484	3
651.518	-18
651.551	6
651.584	-9
651.617	12
651.65	9
651.683	13
651.716	-7
651.749	5
651.783	8
651.816	3
651.849	4
651.882	10
651.915	8
651.948	7
651.981	6
652.014	-1
652.047	-13
652.08	-1
652.114	-8
652.147	-9
652.18	3
652.213	9
652.246	12
652.279	0
652.312	2
652.345	0
652.378	16
652.411	8
652.444	16
652.477	-1
652.51	9
652.543	-1
652.576	20
652.609	-8
652.642	7
652.675	16
652.709	10
652.742	19
652.775	11
652.808	27
652.841	13
652.874	3
652.907	7
652.94	-4
652.973	0
653.006	4
653.039	5
653.072	7
653.105	9
653.138	-14
653.171	-7
653.204	2
653.237	13
653.27	1
653.303	6
653.336	5
653.368	-4
653.401	6
653.434	-7
653.467	0
653.5	-11
653.533	-4
653.566	6
653.599	5
653.632	-1
653.665	8
653.698	-15
653.731	-7
653.764	14
653.797	2
653.83	-2
653.863	13
653.896	8
653.929	6
653.961	-4
653.994	-6
654.027	-17
654.06	9
654.093	7
654.126	6
654.159	-15
654.192	-4
654.225	7
654.258	14
654.29	1
654.323	-6
654.356	4
654.389	11
654.422	3
654.455	-4
654.488	0
654.521	5
654.553	6
654.586	7
654.619	7
654.652	5
654.685	-5
654.718	5
654.751	13
654.783	3
654.816	15
654.849	3
654.882	-4
654.915	0
654.948	0
654.98	-8
655.013	10
655.046	-2
655.079	-12
655.112	6
655.144	12
655.177	3
655.21	13
655.243	8
655.276	-7
655.308	-5
655.341	2
655.374	16
655.407	0
655.44	14
655.472	-2
655.505	2
655.538	5
655.571	29
655.603	6
655.636	-2
655.669	-2
655.702	-3
655.734	-4
655.767	-6
655.8	9
655.833	5
655.865	19
655.898	17
655.931	8
655.964	21
655.996	29
656.029	29
656.062	40
656.095	42
656.127	80
656.16	217
656.193	614
656.225	931
656.258	556
656.291	213
656.324	180
656.356	356
656.389	782
656.422	696
656.454	232
656.487	71
656.52	30
656.552	6
656.585	-2
656.618	7
656.65	13
656.683	14
656.716	18
656.748	7
656.781	-6
656.814	-6
656.846	7
656.879	-2
656.912	15
656.944	-20
656.977	-16
657.01	2
657.042	1
657.075	11
657.108	6
657.14	7
657.173	20
657.205	19
657.238	20
657.271	11
657.303	-2
657.336	8
657.369	14
657.401	-4
657.434	-6
657.466	-5
657.499	3
657.532	9
657.564	16
657.597	-1
657.629	3
657.662	1
657.694	7
657.727	2
657.76	0
657.792	-9
657.825	5
657.857	-2
657.89	-3
657.922	18
657.955	-13
657.987	-6
658.02	15
658.053	28
658.085	-1
658.118	5
658.15	9
658.183	18
658.215	-1
658.248	-10
658.28	1
658.313	13
658.345	-3
658.378	9
658.41	-12
658.443	3
658.475	5
658.508	-8
658.54	-3
658.573	-8
658.605	1
658.638	-17
658.67	-14
658.703	2
658.735	-15
658.768	-1
658.8	-2
658.833	27
658.865	7
658.898	-16
658.93	13
658.963	11
658.995	-14
659.028	-1
659.06	0
659.092	2
659.125	-1
659.157	8
659.19	-17
659.222	-11
659.255	3
659.287	1
659.32	-7
659.352	7
659.384	-6
659.417	-12
659.449	12
659.482	1
659.514	-6
659.546	-18
659.579	7
659.611	-2
659.644	-5
659.676	-26
659.708	-10
659.741	-13
659.773	8
659.806	11
659.838	-4
659.87	2
659.903	-4
659.935	1
659.967	1
660	7
660.032	-19
660.065	13
660.097	6
660.129	7
660.162	-1
660.194	8
660.226	-1
660.259	-5
660.291	7
660.323	13
660.356	5
660.388	-21
660.42	-1
660.453	4
660.485	7
660.517	14
660.55	22
660.582	7
660.614	11
660.647	-5
660.679	-1
660.711	5
660.743	-9
660.776	-15
660.808	1
660.84	-7
660.873	15
660.905	6
660.937	5
660.969	9
661.002	-7
661.034	3
661.066	1
661.099	2
661.131	7
661.163	4
661.195	-8
661.228	33
661.26	1
661.292	11
661.324	1
661.357	3
661.389	-16
661.421	-8
661.453	1
661.485	-8
661.518	7
661.55	-6
661.582	-13
661.614	-3
661.647	7
661.679	9
661.711	-5
661.743	-13
661.775	10
661.808	12
661.84	-2
661.872	12
661.904	-8
661.936	-12
661.969	-23
662.001	-6
662.033	14
662.065	-11
662.097	7
662.129	0
662.162	-2
662.194	8
662.226	-3
662.258	-1
662.29	23
662.322	-3
662.355	-14
662.387	19
662.419	10
662.451	9
662.483	14
662.515	6
662.547	12
662.58	-10
662.612	-9
662.644	-16
662.676	-13
662.708	29
662.74	5
662.772	6
662.804	-2
662.836	5
662.869	-6
662.901	11
662.933	-1
662.965	9
662.997	9
663.029	-15
663.061	-3
663.093	4
663.125	17
663.157	13
663.189	11
663.221	16
663.254	-3
663.286	0
663.318	-4
663.35	-20
663.382	-14
663.414	11
663.446	13
663.478	-18
663.51	12
663.542	-11
663.574	-3
663.606	1
663.638	-19
663.67	-5
663.702	-1
663.734	-3
663.766	14
663.798	0
663.83	5
663.862	13
663.894	4
663.926	15
663.958	9
663.99	1
664.022	-17
664.054	21
664.086	5
664.118	-6
664.15	-5
664.182	0
664.214	-6
664.246	5
664.278	9
664.31	17
664.342	11
664.374	13
664.406	9
664.438	2
664.47	17
664.502	5
664.534	-17
664.566	-11
664.598	-5
664.63	-2
664.662	8
664.693	-4
664.725	1
664.757	-13
664.789	-19
664.821	3
664.853	13
664.885	9
664.917	1
664.949	23
664.981	19
665.013	-5
665.045	-9
665.076	7
665.108	7
665.14	1
665.172	10
665.204	5
665.236	-6
665.268	9
665.3	-16
665.331	-17
665.363	-1
665.395	-5
665.427	-6
665.459	0
665.491	-4
665.523	10
665.555	-3
665.586	17
665.618	3
665.65	-23
665.682	11
665.714	26
665.746	2
665.777	-5
665.809	-3
665.841	3
665.873	1
665.905	7
665.937	18
665.968	4
666	-2
666.032	-4
666.064	13
666.096	-2
666.127	-1
666.159	10
666.191	19
666.223	11
666.255	-5
666.286	0
666.318	-6
666.35	15
666.382	8
666.413	-6
666.445	2
666.477	-18
666.509	3
666.54	9
666.572	-1
666.604	-7
666.636	6
666.667	13
666.699	9
666.731	10
666.763	-6
666.794	-1
666.826	-4
666.858	-11
666.89	4
666.921	-1
666.953	-8
666.985	18
667.017	19
667.048	10
667.08	-9
667.112	7
667.143	-3
667.175	11
667.207	-11
667.238	12
667.27	17
667.302	-17
667.334	-6
667.365	14
667.397	4
667.429	-16
667.46	0
667.492	10
667.524	0
667.555	-11
667.587	-10
667.619	-4
667.65	-20
667.682	2
667.714	6
667.745	11
667.777	8
667.808	15
667.84	9
667.872	3
667.903	12
667.935	10
667.967	10
667.998	-4
668.03	2
668.061	9
668.093	-1
668.125	5
668.156	11
668.188	-4
668.22	-3
668.251	5
668.283	1
668.314	5
668.346	-17
668.377	-2
668.409	5
668.441	11
668.472	-6
668.504	4
668.535	20
668.567	20
668.599	6
668.63	1
668.662	1
668.693	-2
668.725	1
668.756	1
668.788	-12
668.819	4
668.851	3
668.882	-6
668.914	-17
668.946	-4
668.977	-2
669.009	7
669.04	-11
669.072	12
669.103	8
669.135	-1
669.166	1
669.198	-6
669.229	6
669.261	-3
669.292	4
669.324	10
669.355	6
669.387	7
669.418	-5
669.45	0
669.481	-1
669.513	8
669.544	12
669.576	-3
669.607	15
669.639	12
669.67	3
669.701	3
669.733	-8
669.764	12
669.796	-6
669.827	-23
669.859	-8
669.89	12
669.922	14
669.953	22
669.985	9
670.016	7
670.047	13
670.079	-7
670.11	7
670.142	6
670.173	12
670.204	4
670.236	13
670.267	-14
670.299	9
670.33	-5
670.362	-8
670.393	-6
670.424	-5
670.456	-19
670.487	-3
670.518	2
670.55	3
670.581	7
670.613	5
670.644	-15
670.675	-15
670.707	9
670.738	9
670.769	1
670.801	-13
670.832	7
670.864	-7
670.895	5
670.926	7
670.958	1
670.989	13
671.02	5
671.052	-6
671.083	-1
671.114	-3
671.146	6
671.177	5
671.208	4
671.24	-6
671.271	-3
671.302	-4
671.333	0
671.365	-1
671.396	9
671.427	6
671.459	12
671.49	-3
671.521	-12
671.553	-5
671.584	20
671.615	-11
671.646	5
671.678	3
671.709	-26
671.74	-26
671.771	-3
671.803	-9
671.834	4
671.865	11
671.896	17
671.928	1
671.959	-14
671.99	-4
672.021	0
672.053	-1
672.084	3
672.115	5
672.146	-19
672.178	-16
672.209	-10
672.24	9
672.271	25
672.303	-7
672.334	-5
672.365	-5
672.396	11
672.427	13
672.459	22
672.49	15
672.521	-1
672.552	12
672.583	-11
672.615	-1
672.646	12
672.677	-8
672.708	10
672.739	1
672.77	6
672.802	-2
672.833	0
672.864	8
672.895	13
672.926	-11
672.957	-13
672.989	0
673.02	-4
673.051	5
673.082	11
673.113	-8
673.144	-5
673.175	6
673.206	3
673.238	6
673.269	8
673.3	-4
673.331	16
673.362	1
673.393	-4
673.424	4
673.455	20
673.487	5
673.518	17
673.549	4
673.58	-7
673.611	9
673.642	-2
673.673	-14
673.704	15
673.735	8
673.766	-7
673.797	-1
673.828	14
673.86	-9
673.891	-11
673.922	-4
673.953	-12
673.984	10
674.015	23
674.046	-15
674.077	0
674.108	-9
674.139	6
674.17	2
674.201	-8
674.232	-2
674.263	-9
674.294	-14
674.325	-10
674.356	2
674.387	-4
674.418	19
674.449	-5
674.48	-7
674.511	12
674.542	9
674.573	-7
674.604	3
674.635	-7
674.666	16
674.697	11
674.728	5
674.759	12
674.79	-7
674.821	-12
674.852	8
674.883	3
674.914	11
674.945	11
674.976	3
675.007	-15
675.038	-5
675.069	-13
675.1	-8
675.131	-3
675.162	-9
675.193	-8
675.224	-14
675.254	3
675.285	8
675.316	16
675.347	4
675.378	2
675.409	-16
675.44	11
675.471	-8
675.502	-21
675.533	-6
675.564	2
675.595	-6
675.625	12
675.656	23
675.687	11
675.718	-11
675.749	24
675.78	12
675.811	-1
675.842	-7
675.873	-3
675.903	-3
675.934	-2
675.965	-6
675.996	-18
676.027	1
676.058	-7
676.089	1
676.119	8
676.15	2
676.181	-6
676.212	-8
676.243	10
676.274	12
676.304	29
676.335	3
676.366	-4
676.397	-9
676.428	5
676.459	12
676.489	16
676.52	1
676.551	4
676.582	-11
676.613	-3
676.643	-7
676.674	6
676.705	2
676.736	-2
676.767	13
676.797	10
676.828	6
676.859	-7
676.89	-6
676.92	-4
676.951	5
676.982	-1
677.013	10
677.044	14
677.074	8
677.105	-14
677.136	21
677.167	9
677.197	15
677.228	6
677.259	-7
677.289	6
677.32	-16
677.351	-13
677.382	-18
677.412	-24
677.443	6
677.474	7
677.505	-2
677.535	14
677.566	-7
677.597	-13
677.627	-7
677.658	9
677.689	5
677.72	13
677.75	8
677.781	13
677.812	11
677.842	23
677.873	22
677.904	6
677.934	2
677.965	-8
677.996	-8
678.026	-7
678.057	-6
678.088	0
678.118	10
678.149	-10
678.18	-8
678.21	-2
678.241	20
678.272	8
678.302	-5
678.333	5
678.363	3
678.394	0
678.425	8
678.455	-1
678.486	10
678.517	-6
678.547	-4
678.578	-5
678.608	-11
678.639	6
678.67	0
678.7	-16
678.731	-12
678.761	-10
678.792	6
678.823	1
678.853	3
678.884	-1
678.914	11
678.945	14
678.975	2
679.006	12
679.037	-7
679.067	21
679.098	11
679.128	-16
679.159	1
679.189	2
679.22	-7
679.25	-2
679.281	12
679.312	-14
679.342	4
679.373	44
679.403	13
679.434	10
679.464	4
679.495	10
679.525	2
679.556	-3
679.586	11
679.617	20
679.647	-2
679.678	9
679.708	-6
679.739	4
679.769	5
679.8	-3
679.83	-13
679.861	3
679.891	-3
679.922	-6
679.952	5
679.983	-1
680.013	20
680.044	-3
680.074	21
680.105	20
680.135	-1
680.165	13
680.196	4
680.226	-2
680.257	10
680.287	1
680.318	1
680.348	-10
680.379	7
680.409	-2
680.439	-13
680.47	-14
680.5	6
680.531	-4
680.561	18
680.592	10
680.622	10
680.652	2
680.683	7
680.713	-9
680.744	6
680.774	1
680.804	11
680.835	-11
680.865	-5
680.896	20
680.926	14
680.956	-2
680.987	10
681.017	-7
681.047	-5
681.078	-7
681.108	-2
681.139	3
681.169	-12
681.199	-4
681.23	-2
681.26	-11
681.29	-3
681.321	-11
681.351	-1
681.381	-11
681.412	24
681.442	1
681.472	-6
681.503	-3
681.533	-2
681.563	10
681.594	2
681.624	-1
681.654	-3
681.685	2
681.715	4
681.745	-8
681.775	-14
681.806	0
681.836	-11
681.866	-9
681.897	5
681.927	-5
681.957	-16
681.987	-15
682.018	-7
682.048	-2
682.078	6
682.109	29
682.139	17
682.169	15
682.199	-4
682.23	-11
682.26	10
682.29	0
682.32	6
682.351	-4
682.381	7
682.411	-13
682.441	5
682.472	-14
682.502	-4
682.532	-6
682.562	5
682.592	-9
682.623	6
682.653	14
682.683	1
682.713	7
682.743	-4
682.774	-9
682.804	-2
682.834	20
682.864	-7
682.894	-11
682.925	-5
682.955	9
682.985	-15
683.015	11
683.045	26
683.076	-4
683.106	4
683.136	-2
683.166	-4
683.196	-3
683.226	7
683.257	7
683.287	-7
683.317	-9
683.347	-5
683.377	-1
683.407	6
683.437	11
683.468	16
683.498	8
683.528	5
683.558	-14
683.588	-7
683.618	-6
683.648	3
683.678	16
683.708	7
683.739	-4
683.769	9
683.799	-2
683.829	2
683.859	7
683.889	15
683.919	2
683.949	2
683.979	-8
684.009	1
684.039	7
684.07	-2
684.1	18
684.13	12
684.16	11
684.19	-6
684.22	-3
684.25	5
684.28	7
684.31	27
684.34	10
684.37	0
684.4	-10
684.43	-7
684.46	2
684.49	4
684.52	7
684.55	-2
684.58	5
684.61	-2
684.64	-1
684.67	7
684.7	-1
684.73	4
684.76	0
684.79	12
684.82	-1
684.85	-5
684.88	5
684.91	1
684.94	4
684.97	0
685	-7
685.03	-3
685.06	6
685.09	-5
685.12	7
685.15	-10
685.18	12
685.21	23
685.24	3
685.27	18
685.3	-5
685.33	19
685.36	5
685.39	-4
685.42	-14
685.45	-15
685.48	-7
685.51	1
685.54	21
685.569	7
685.599	5
685.629	11
685.659	2
685.689	4
685.719	11
685.749	-4
685.779	17
685.809	13
685.839	-8
685.869	-3
685.898	1
685.928	8
685.958	9
685.988	9
686.018	5
686.048	0
686.078	10
686.108	25
686.137	3
686.167	21
686.197	-7
686.227	-12
686.257	27
686.287	29
686.317	13
686.346	-6
686.376	-15
686.406	2
686.436	-2
686.466	-7
686.496	8
686.525	10
686.555	-4
686.585	21
686.615	11
686.645	-8
686.675	12
686.704	12
686.734	12
686.764	13
686.794	-6
686.824	-12
686.853	18
686.883	23
686.913	6
686.943	13
686.973	4
687.002	7
687.032	14
687.062	1
687.092	6
687.121	-10
687.151	-6
687.181	14
687.211	9
687.24	11
687.27	5
687.3	5
687.33	11
687.359	-5
687.389	-6
687.419	-19
687.449	16
687.478	7
687.508	-5
687.538	9
687.568	-5
687.597	-6
687.627	13
687.657	0
687.686	-2
687.716	4
687.746	-2
687.776	-5
687.805	-10
687.835	-8
687.865	-5
687.894	4
687.924	1
687.954	4
687.983	-5
688.013	6
688.043	11
688.072	10
688.102	15
688.132	13
688.161	9
688.191	1
688.221	26
688.25	-3
688.28	4
688.31	2
688.339	-4
688.369	-12
688.399	-1
688.428	-9
688.458	6
688.488	-10
688.517	0
688.547	6
688.576	30
688.606	8
688.636	-4
688.665	10
688.695	13
688.725	5
688.754	13
688.784	-5
688.813	8
688.843	-10
688.873	-3
688.902	0
688.932	-2
688.961	10
688.991	23
689.02	16
689.05	7
689.08	19
689.109	16
689.139	-5
689.168	-1
689.198	2
689.227	14
689.257	14
689.287	14
689.316	6
689.346	-10
689.375	6
689.405	18
689.434	2
689.464	6
689.493	0
689.523	13
689.552	-3
689.582	17
689.611	3
689.641	-9
689.67	13
689.7	9
689.73	17
689.759	17
689.789	9
689.818	2
689.848	-7
689.877	8
689.906	-3
689.936	-14
689.965	-7
689.995	3
690.024	5
690.054	9
690.083	6
690.113	-16
690.142	-1
690.172	-9
690.201	13
690.231	-6
690.26	7
690.29	2
690.319	13
690.348	17
690.378	1
690.407	12
690.437	-4
690.466	2
690.496	-1
690.525	-15
690.555	-4
690.584	-16
690.613	0
690.643	6
690.672	8
690.702	13
690.731	4
690.76	6
690.79	-2
690.819	-2
690.849	10
690.878	6
690.907	23
690.937	42
690.966	2
690.996	-3
691.025	-8
691.054	6
691.084	7
691.113	9
691.142	15
691.172	12
691.201	26
691.23	7
691.26	5
691.289	5
691.319	14
691.348	7
691.377	6
691.407	17
691.436	9
691.465	19
691.495	16
691.524	-2
691.553	-14
691.583	-1
691.612	10
691.641	23
691.67	13
691.7	2
691.729	-12
691.758	-7
691.788	14
691.817	4
691.846	-5
691.876	-11
691.905	-8
691.934	11
691.963	21
691.993	13
692.022	-2
692.051	5
692.081	13
692.11	21
692.139	14
692.168	7
692.198	11
692.227	11
692.256	-4
692.285	2
692.315	8
692.344	11
692.373	4
692.402	-23
692.432	-1
692.461	5
692.49	-3
692.519	1
692.548	15
692.578	22
692.607	-18
692.636	6
692.665	11
692.694	-6
692.724	-7
692.753	17
692.782	22
692.811	8
692.84	13
692.87	11
692.899	2
692.928	9
692.957	-4
692.986	11
693.016	7
693.045	13
693.074	13
693.103	6
693.132	-1
693.161	5
693.191	-10
693.22	-2
693.249	1
693.278	6
693.307	12
693.336	-3
693.365	-23
693.395	7
693.424	16
693.453	25
693.482	5
693.511	0
693.54	-9
693.569	20
693.598	9
693.628	10
693.657	27
693.686	17
693.715	16
693.744	2
693.773	15
693.802	16
693.831	-8
693.86	21
693.889	-3
693.919	-6
693.948	-4
693.977	5
694.006	9
694.035	2
694.064	2
694.093	0
694.122	-7
694.151	8
694.18	18
694.209	33
694.238	9
694.267	7
694.296	10
694.325	9
694.354	22
694.383	13
694.412	12
694.441	-4
694.471	-1
694.5	-9
694.529	-5
694.558	8
694.587	21
694.616	5
694.645	11
694.674	10
694.703	0
694.732	-6
694.761	16
694.79	28
694.819	-6
694.848	12
694.877	28
694.906	15
694.935	-4
694.963	20
694.992	-4
695.021	16
695.05	-6
695.079	9
695.108	8
695.137	17
695.166	1
695.195	2
695.224	16
695.253	19
695.282	-1
695.311	-3
695.34	5
695.369	19
695.398	4
695.427	5
695.456	6
695.485	10
695.513	4
695.542	-4
695.571	-6
695.6	29
695.629	23
695.658	25
695.687	8
695.716	-8
695.745	16
695.774	-10
695.802	-6
695.831	2
695.86	17
695.889	10
695.918	10
695.947	1
695.976	4
696.005	4
696.033	-3
696.062	9
696.091	2
696.12	1
696.149	17
696.178	11
696.207	13
696.235	4
696.264	-3
696.293	14
696.322	12
696.351	14
696.38	12
696.408	9
696.437	-4
696.466	22
696.495	19
696.524	10
696.553	-1
696.581	1
696.61	2
696.639	-10
696.668	11
696.697	11
696.725	19
696.754	9
696.783	-1
696.812	-3
696.84	18
696.869	3
696.898	3
696.927	4
696.956	17
696.984	-6
697.013	14
697.042	7
697.071	10
697.099	15
697.128	24
697.157	17
697.186	-6
697.214	-6
697.243	-8
697.272	16
697.301	17
697.329	20
697.358	6
697.387	8
697.415	7
697.444	3
697.473	6
697.502	3
697.53	-2
697.559	2
697.588	9
697.616	-8
697.645	-11
697.674	8
697.703	11
697.731	19
697.76	16
697.789	9
697.817	8
697.846	13
697.875	5
697.903	13
697.932	7
697.961	9
697.989	14
698.018	7
698.047	2
698.075	12
698.104	9
698.133	8
698.161	12
698.19	13
698.218	5
698.247	13
698.276	-25
698.304	5
698.333	1
698.362	9
698.39	7
698.419	6
698.447	7
698.476	0
698.505	8
698.533	0
698.562	5
698.591	5
698.619	-2
698.648	5
698.676	4
698.705	-5
698.733	2
698.762	7
698.791	11
698.819	9
698.848	0
698.876	11
698.905	16
698.933	21
698.962	12
698.991	0
699.019	19
699.048	9
699.076	3
699.105	1
699.133	5
699.162	13
699.19	9
699.219	1
699.248	3
699.276	2
699.305	8
699.333	11
699.362	7
699.39	10
699.419	-6
699.447	7
699.476	16
699.504	-5
699.533	10
699.561	-10
699.59	10
699.618	-6
699.647	-3
699.675	6
699.704	4
699.732	-7
699.761	14
699.789	17
699.818	6
699.846	1
699.874	-5
699.903	12
699.931	5
699.96	8
699.988	4
700.017	6
700.045	0
700.074	1
700.102	-4
700.13	-17
700.159	4
700.187	5
700.216	-1
700.244	0
700.273	-3
700.301	15
700.329	9
700.358	19
700.386	-5
700.415	10
700.443	7
700.472	-7
700.5	11
700.528	14
700.557	12
700.585	-1
700.614	-3
700.642	20
700.67	27
700.699	13
700.727	-1
700.755	16
700.784	12
700.812	8
700.841	24
700.869	-7
700.897	-7
700.926	12
700.954	13
700.982	16
701.011	5
701.039	5
701.067	5
701.096	6
701.124	-11
701.152	-10
701.181	5
701.209	-6
701.237	8
701.266	5
701.294	2
701.322	16
701.351	15
701.379	-2
701.407	-5
701.435	9
701.464	14
701.492	18
701.52	3
701.549	-6
701.577	0
701.605	0
701.634	-4
701.662	18
701.69	-17
701.718	1
701.747	11
701.775	4
701.803	1
701.831	15
701.86	-18
701.888	8
701.916	14
701.944	1
701.973	1
702.001	-3
702.029	3
702.057	1
702.086	-11
702.114	-12
702.142	-1
702.17	5
702.199	6
702.227	-3
702.255	-3
702.283	-4
702.311	3
702.34	3
702.368	-9
702.396	5
702.424	-8
702.452	5
702.481	4
702.509	10
702.537	10
702.565	6
702.593	-8
702.621	-6
702.65	4
702.678	4
702.706	11
702.734	-4
702.762	-3
702.79	2
702.819	-12
702.847	-3
702.875	14
702.903	5
702.931	5
702.959	3
702.988	6
703.016	4
703.044	4
703.072	-4
703.1	-5
703.128	-4
703.156	5
703.184	-2
703.212	11
703.241	12
703.269	9
703.297	6
703.325	5
703.353	-11
703.381	-12
703.409	18
703.437	9
703.465	8
703.493	-16
703.522	7
703.55	13
703.578	9
703.606	-2
703.634	-3
703.662	8
703.69	-3
703.718	4
703.746	34
703.774	12
703.802	2
703.83	-3
703.858	7
703.886	8
703.914	6
703.942	4
703.97	6
703.998	10
704.027	10
704.055	21
704.083	-2
704.111	11
704.139	21
704.167	11
704.195	17
704.223	0
704.251	-3
704.279	24
704.307	4
704.335	-19
704.363	-7
704.391	-7
704.419	-15
704.447	-7
704.475	4
704.503	-9
704.531	21
704.558	1
704.586	10
704.614	-9
704.642	-2
704.67	-12
704.698	-5
704.726	11
704.754	4
704.782	-17
704.81	-8
704.838	21
704.866	10
704.894	0
704.922	8
704.95	5
704.978	8
705.006	12
705.034	22
705.061	-10
705.089	-1
705.117	-6
705.145	-4
705.173	-14
705.201	15
705.229	-3
705.257	-3
705.285	18
705.313	10
705.34	13
705.368	7
705.396	5
705.424	-7
705.452	7
705.48	8
705.508	-4
705.536	0
705.563	1
705.591	9
705.619	-9
705.647	-15
705.675	3
705.703	8
705.731	3
705.758	14
705.786	7
705.814	15
705.842	7
705.87	20
705.898	16
705.925	6
705.953	15
705.981	-14
706.009	2
706.037	2
706.065	-7
706.092	-2
706.12	11
706.148	-4
706.176	1
706.204	5
706.231	9
706.259	6
706.287	-3
706.315	17
706.342	2
706.37	4
706.398	20
706.426	2
706.454	-5
706.481	8
706.509	8
706.537	-5
706.565	-4
706.592	3
706.62	4
706.648	21
706.676	-15
706.703	4
706.731	-4
706.759	11
706.787	2
706.814	0
706.842	-12
706.87	-2
706.897	-8
706.925	-1
706.953	9
706.981	15
707.008	-1
707.036	-4
707.064	5
707.091	-10
707.119	15
707.147	-4
707.174	-18
707.202	16
707.23	-3
707.258	17
707.285	-25
707.313	-4
707.341	-5
707.368	-4
707.396	-11
707.424	15
707.451	-2
707.479	-7
707.507	-6
707.534	4
707.562	2
707.59	7
707.617	1
707.645	2
707.672	7
707.7	-8
707.728	-5
707.755	-8
707.783	-1
707.811	9
707.838	-6
707.866	13
707.893	6
707.921	-3
707.949	-14
707.976	-4
708.004	5
708.031	6
708.059	2
708.087	13
708.114	2
708.142	-2
708.169	-4
708.197	-3
708.225	-17
708.252	-2
708.28	-9
708.307	-9
708.335	8
708.362	2
708.39	-8
708.418	-2
708.445	-3
708.473	-8
708.5	-16
708.528	16
708.555	-6
708.583	-2
708.61	8
708.638	8
708.665	-14
708.693	2
708.72	-3
708.748	-3
708.776	5
708.803	19
708.831	4
708.858	12
708.886	-4
708.913	3
708.941	-5
708.968	21
708.996	-5
709.023	22
709.051	16
709.078	-9
709.105	1
709.133	-1
709.16	8
709.188	15
709.215	13
709.243	6
709.27	8
709.298	1
709.325	-16
709.353	-22
709.38	9
709.408	-8
709.435	6
709.462	-1
709.49	8
709.517	-3
709.545	-1
709.572	0
709.6	6
709.627	14
709.655	11
709.682	4
709.709	-12
709.737	-9
709.764	0
709.792	8
709.819	4
709.846	-9
709.874	7
709.901	18
709.929	17
709.956	12
709.983	3
710.011	4
710.038	0
710.066	20
710.093	30
710.12	11
710.148	9
710.175	2
710.202	-16
710.23	-15
710.257	3
710.284	17
710.312	-3
710.339	0
710.366	8
710.394	-6
710.421	1
710.448	8
710.476	-22
710.503	4
710.53	4
710.558	10
710.585	0
710.612	-2
710.64	5
710.667	-4
710.694	-10
710.722	12
710.749	1
710.776	13
710.804	22
710.831	4
710.858	5
710.885	-4
710.913	-6
710.94	10
710.967	0
710.995	-12
711.022	14
711.049	10
711.076	-5
711.104	-9
711.131	-12
711.158	8
711.185	15
711.213	1
711.24	-4
711.267	9
711.294	-3
711.322	8
711.349	-3
711.376	1
711.403	1
711.431	-4
711.458	10
711.485	7
711.512	-2
711.54	-2
711.567	-1
711.594	-12
711.621	-6
711.648	-3
711.676	10
711.703	17
711.73	-16
711.757	-11
711.784	-1
711.812	5
711.839	4
711.866	-10
711.893	-12
711.92	14
711.947	11
711.975	30
712.002	0
712.029	9
712.056	18
712.083	13
712.11	-16
712.138	14
712.165	15
712.192	-8
712.219	-4
712.246	-12
712.273	9
712.3	2
712.328	-3
712.355	2
712.382	-3
712.409	26
712.436	-12
712.463	4
712.49	6
712.517	6
712.544	-5
712.572	9
712.599	0
712.626	11
712.653	4
712.68	-6
712.707	-4
712.734	-14
712.761	5
712.788	12
712.815	12
712.842	3
712.87	1
712.897	3
712.924	-2
712.951	0
712.978	3
713.005	5
713.032	18
713.059	-7
713.086	-4
713.113	-12
713.14	-24
713.167	4
713.194	5
713.221	4
713.248	1
713.275	2
713.302	-7
713.329	19
713.356	5
713.383	3
713.41	13
713.437	-8
713.464	9
713.491	10
713.518	15
713.545	0
713.572	-1
713.599	16
713.626	13
713.653	15
713.68	-11
713.707	4
713.734	10
713.761	1
713.788	7
713.815	23
713.842	1
713.869	6
713.896	-7
713.923	-1
713.95	12
713.977	-7
714.004	5
714.031	-12
714.058	-3
714.085	0
714.112	9
714.139	0
714.165	9
714.192	6
714.219	14
714.246	16
714.273	0
714.3	-3
714.327	-1
714.354	0
714.381	1
714.408	4
714.435	-3
714.461	9
714.488	2
714.515	-3
714.542	-11
714.569	-4
714.596	-10
714.623	2
714.65	-9
714.677	-11
714.703	4
714.73	8
714.757	-9
714.784	12
714.811	-5
714.838	6
714.865	-4
714.891	8
714.918	7
714.945	-9
714.972	-6
714.999	8
715.026	12
715.052	13
715.079	-4
715.106	-15
715.133	-3
715.16	3
715.187	1
715.213	2
715.24	1
715.267	5
715.294	4
715.321	6
715.347	31
715.374	2
715.401	-7
715.428	-4
715.455	7
715.481	-22
715.508	8
715.535	0
715.562	13
715.588	1
715.615	-9
715.642	-2
715.669	8
715.695	-1
715.722	0
715.749	10
715.776	14
715.802	11
715.829	6
715.856	-3
715.883	8
715.909	5
715.936	0
715.963	8
715.99	-23
716.016	9
716.043	14
716.07	15
716.096	-10
716.123	7
716.15	2
716.177	11
716.203	18
716.23	-1
716.257	17
716.283	12
716.31	-6
716.337	9
716.363	-9
716.39	5
716.417	7
716.443	-3
716.47	5
716.497	23
716.523	5
716.55	1
716.577	4
716.603	-6
716.63	0
716.657	0
716.683	-10
716.71	-2
716.737	7
716.763	14
716.79	-3
716.817	18
716.843	9
716.87	-1
716.897	4
716.923	17
716.95	-5
716.976	-16
717.003	11
717.03	5
717.056	18
717.083	14
717.109	14
717.136	25
717.163	8
717.189	5
717.216	17
717.242	-5
717.269	-6
717.296	16
717.322	1
717.349	7
717.375	10
717.402	5
717.428	-4
717.455	28
717.481	10
717.508	10
717.535	6
717.561	6
717.588	7
717.614	8
717.641	14
717.667	9
717.694	10
717.72	9
717.747	8
717.773	6
717.8	17
717.826	10
717.853	12
717.88	23
717.906	8
717.933	16
717.959	6
717.986	7
718.012	-9
718.039	27
718.065	7
718.092	3
718.118	-6
718.144	-16
718.171	13
718.197	9
718.224	3
718.25	5
718.277	4
718.303	12
718.33	7
718.356	-8
718.383	-4
718.409	7
718.436	-4
718.462	-3
718.489	4
718.515	8
718.541	14
718.568	20
718.594	0
718.621	8
718.647	-3
718.674	6
718.7	5
718.726	-3
718.753	-8
718.779	13
718.806	2
718.832	2
718.858	-9
718.885	-15
718.911	-7
718.938	28
718.964	-1
718.99	1
719.017	4
719.043	3
719.07	20
719.096	-5
719.122	14
719.149	-4
719.175	0
719.201	-1
719.228	12
719.254	6
719.281	-15
719.307	-3
719.333	9
719.36	9
719.386	5
719.412	16
719.439	2
719.465	-8
719.491	2
719.518	6
719.544	11
719.57	9
719.597	6
719.623	-1
719.649	9
719.675	17
719.702	-5
719.728	14
719.754	-11
719.781	-4
719.807	1
719.833	0
719.86	8
719.886	7
719.912	-1
719.938	-1
719.965	-3
719.991	-2
720.017	0
720.044	2
720.07	7
720.096	32
720.122	-9
720.149	11
720.175	18
720.201	4
720.227	-3
720.254	2
720.28	18
720.306	-6
720.332	16
720.359	0
720.385	11
720.411	-1
720.437	10
720.463	12
720.49	13
720.516	-1
720.542	-16
720.568	11
720.595	8
720.621	3
720.647	12
720.673	11
720.699	8
720.725	6
720.752	20
720.778	18
720.804	2
720.83	-1
720.856	-2
720.883	-3
720.909	-8
720.935	8
720.961	17
720.987	21
721.013	7
721.04	15
721.066	-5
721.092	-2
721.118	-5
721.144	10
721.17	0
721.196	-1
721.223	-18
721.249	-2
721.275	8
721.301	12
721.327	13
721.353	12
721.379	11
721.405	14
721.432	8
721.458	0
721.484	20
721.51	-6
721.536	11
721.562	5
721.588	0
721.614	-11
721.64	16
721.666	0
721.693	10
721.719	2
721.745	-5
721.771	10
721.797	0
721.823	4
721.849	12
721.875	29
721.901	11
721.927	5
721.953	0
721.979	32
722.005	13
722.031	7
722.057	5
722.083	8
722.109	8
722.135	11
722.161	10
722.187	6
722.214	-1
722.24	-4
722.266	8
722.292	19
722.318	16
722.344	16
722.37	12
722.396	7
722.422	8
722.448	2
722.474	-17
722.5	2
722.526	-5
722.552	-4
722.578	-15
722.603	7
722.629	-6
722.655	13
722.681	7
722.707	8
722.733	-6
722.759	-12
722.785	-2
722.811	7
722.837	6
722.863	23
722.889	9
722.915	1
722.941	10
722.967	2
722.993	25
723.019	21
723.045	8
723.071	0
723.097	10
723.122	9
723.148	1
723.174	2
723.2	4
723.226	-4
723.252	1
723.278	-1
723.304	2
723.33	-1
723.356	-7
723.381	-8
723.407	-9
723.433	10
723.459	6
723.485	-2
723.511	24
723.537	-1
723.563	11
723.588	13
723.614	19
723.64	6
723.666	-2
723.692	12
723.718	11
723.744	5
723.769	-4
723.795	-1
723.821	15
723.847	3
723.873	5
723.899	2
723.924	-4
723.95	7
723.976	-8
724.002	9
724.028	12
724.053	1
724.079	4
724.105	4
724.131	-3
724.157	14
724.182	8
724.208	-5
724.234	-6
724.26	-2
724.286	4
724.311	-3
724.337	-1
724.363	3
724.389	11
724.415	-12
724.44	22
724.466	-10
724.492	5
724.518	10
724.543	-1
724.569	6
724.595	10
724.621	-2
724.646	4
724.672	5
724.698	3
724.723	8
724.749	17
724.775	23
724.801	9
724.826	-3
724.852	-4
724.878	-11
724.904	-2
724.929	-3
724.955	1
724.981	-3
725.006	0
725.032	9
725.058	24
725.083	7
725.109	-11
725.135	8
725.161	9
725.186	12
725.212	1
725.238	11
725.263	-8
725.289	-10
725.315	-27
725.34	-12
725.366	12
725.392	13
725.417	-1
725.443	4
725.468	25
725.494	21
725.52	16
725.545	0
725.571	1
725.597	-9
725.622	5
725.648	-2
725.674	17
725.699	19
725.725	21
725.75	40
725.776	4
725.802	9
725.827	-7
725.853	10
725.878	2
725.904	2
725.93	0
725.955	6
725.981	-4
726.006	4
726.032	1
726.057	-7
726.083	6
726.109	13
726.134	12
726.16	3
726.185	1
726.211	-9
726.236	6
726.262	0
726.288	-4
726.313	9
726.339	10
726.364	-1
726.39	5
726.415	8
726.441	14
726.466	-3
726.492	12
726.517	23
726.543	5
726.568	-10
726.594	2
726.619	10
726.645	4
726.67	-8
726.696	5
726.721	-11
726.747	-1
726.772	9
726.798	8
726.823	1
726.849	2
726.874	16
726.9	31
726.925	2
726.951	9
726.976	1
727.002	2
727.027	7
727.053	12
727.078	4
727.104	10
727.129	-8
727.155	-8
727.18	17
727.205	-4
727.231	-10
727.256	17
727.282	-4
727.307	19
727.333	4
727.358	-8
727.383	-17
727.409	-30
727.434	-3
727.46	-8
727.485	3
727.511	10
727.536	-20
727.561	0
727.587	4
727.612	-19
727.637	-5
727.663	-2
727.688	16
727.714	-8
727.739	7
727.764	-1
727.79	14
727.815	16
727.841	16
727.866	23
727.891	4
727.917	5
727.942	4
727.967	-11
727.993	-4
728.018	0
728.043	12
728.069	11
728.094	9
728.119	14
728.145	10
728.17	20
728.195	5
728.221	28
728.246	14
728.271	-12
728.297	-4
728.322	12
728.347	2
728.373	8
728.398	12
728.423	-2
728.448	2
728.474	-1
728.499	-1
728.524	-8
728.55	1
728.575	-12
728.6	8
728.625	4
728.651	10
728.676	-16
728.701	4
728.727	8
728.752	0
728.777	7
728.802	1
728.828	4
728.853	-12
728.878	4
728.903	4
728.929	-8
728.954	1
728.979	-1
729.004	-11
729.03	-8
729.055	6
729.08	-20
729.105	-6
729.13	17
729.156	13
729.181	-9
729.206	-22
729.231	-2
729.256	-3
729.282	3
729.307	-16
729.332	-8
729.357	-5
729.382	3
729.408	-8
729.433	-11
729.458	4
729.483	8
729.508	20
729.533	7
729.559	4
729.584	8
729.609	19
729.634	24
729.659	2
729.684	-2
729.71	38
729.735	17
729.76	10
729.785	-5
729.81	3
729.835	-8
729.86	9
729.886	9
729.911	16
729.936	-4
729.961	11
729.986	-8
730.011	0
730.036	9
730.061	4
730.086	-5
730.112	2
730.137	9
730.162	8
730.187	-16
730.212	5
730.237	-7
730.262	-4
730.287	-5
730.312	15
730.337	-4
730.362	19
730.387	1
730.413	-7
730.438	-15
730.463	5
730.488	-9
730.513	6
730.538	-3
730.563	23
730.588	21
730.613	18
730.638	-8
730.663	0
730.688	10
730.713	-6
730.738	0
730.763	-10
730.788	-4
730.813	-2
730.838	5
730.863	3
730.888	-2
730.913	-16
730.938	-14
730.963	5
730.988	8
731.013	17
731.038	1
731.063	-2
731.088	-3
731.113	-12
731.138	-3
731.163	-2
731.188	-6
731.213	9
731.238	30
731.263	7
731.288	-4
731.313	-1
731.338	6
731.363	1
731.388	15
731.413	-2
731.438	4
731.463	3
731.487	1
731.512	-10
731.537	-4
731.562	4
731.587	17
731.612	-7
731.637	6
731.662	12
731.687	-4
731.712	0
731.737	7
731.762	9
731.786	-2
731.811	-2
731.836	11
731.861	6
731.886	1
731.911	16
731.936	24
731.961	-3
731.986	-12
732.01	4
732.035	17
732.06	0
732.085	-9
732.11	3
732.135	-24
732.16	-1
732.184	4
732.209	-10
732.234	7
732.259	-6
732.284	-1
732.309	-6
732.334	-10
732.358	-21
732.383	-3
732.408	3
732.433	8
732.458	0
732.482	0
732.507	-1
732.532	-3
732.557	20
732.582	16
732.607	7
732.631	-15
732.656	-5
732.681	0
732.706	-3
732.73	2
732.755	-5
732.78	5
732.805	16
732.83	12
732.854	8
732.879	18
732.904	8
732.929	2
732.953	9
732.978	5
733.003	-3
733.028	-11
733.052	22
733.077	11
733.102	17
733.127	0
733.151	-10
733.176	4
733.201	-5
733.226	4
733.25	-7
733.275	6
733.3	11
733.324	16
733.349	7
733.374	3
733.399	5
733.423	8
733.448	5
733.473	0
733.497	-11
733.522	-8
733.547	11
733.571	4
733.596	-2
733.621	9
733.646	1
733.67	9
733.695	-5
733.72	2
733.744	18
733.769	-8
733.794	21
733.818	0
733.843	2
733.867	-17
733.892	-5
733.917	0
733.941	-5
733.966	9
733.991	-5
734.015	22
734.04	1
734.065	13
734.089	18
734.114	2
734.138	8
734.163	-15
734.188	9
734.212	12
734.237	17
734.261	4
734.286	2
734.311	7
734.335	-3
734.36	11
734.384	1
734.409	4
734.434	1
734.458	-9
734.483	5
734.507	-6
734.532	4
734.556	2
734.581	7
734.606	-7
734.63	4
734.655	15
734.679	6
734.704	16
734.728	7
734.753	-8
734.777	16
734.802	5
734.826	-3
734.851	8
734.876	22
734.9	13
734.925	5
734.949	6
734.974	8
734.998	21
735.023	8
735.047	-8
735.072	24
735.096	16
735.121	13
735.145	1
735.17	-5
735.194	16
735.219	8
735.243	2
735.268	5
735.292	6
735.317	16
735.341	6
735.365	-1
735.39	12
735.414	-4
735.439	6
735.463	8
735.488	12
735.512	2
735.537	-2
735.561	21
735.586	3
735.61	5
735.634	8
735.659	0
735.683	5
735.708	4
735.732	-3
735.757	-2
735.781	1
735.805	10
735.83	1
735.854	-4
735.879	0
735.903	18
735.927	16
735.952	6
735.976	10
736.001	12
736.025	4
736.049	9
736.074	17
736.098	2
736.123	11
736.147	10
736.171	-8
736.196	6
736.22	5
736.244	-1
736.269	4
736.293	-1
736.317	-2
736.342	12
736.366	14
736.39	1
736.415	8
736.439	2
736.463	1
736.488	7
736.512	9
736.536	8
736.561	18
736.585	-7
736.609	10
736.634	0
736.658	12
736.682	-21
736.707	-1
736.731	-5
736.755	5
736.78	17
736.804	18
736.828	9
736.852	17
736.877	1
736.901	8
736.925	3
736.949	7
736.974	1
736.998	-12
737.022	-1
737.047	4
737.071	0
737.095	12
737.119	27
737.144	5
737.168	2
737.192	-2
737.216	2
737.241	8
737.265	15
737.289	1
737.313	1
737.337	16
737.362	-6
737.386	-12
737.41	-6
737.434	-2
737.459	13
737.483	25
737.507	19
737.531	17
737.555	1
737.58	10
737.604	-5
737.628	-14
737.652	-15
737.676	2
737.701	5
737.725	20
737.749	12
737.773	-1
737.797	-5
737.821	-4
737.846	-9
737.87	9
737.894	4
737.918	0
737.942	1
737.966	14
737.99	14
738.015	2
738.039	6
738.063	-4
738.087	10
738.111	-2
738.135	25
738.159	-10
738.184	5
738.208	23
738.232	10
738.256	24
738.28	13
738.304	6
738.328	-6
738.352	-7
738.376	22
738.4	6
738.425	10
738.449	-7
738.473	12
738.497	-1
738.521	4
738.545	-7
738.569	14
738.593	0
738.617	-2
738.641	-3
738.665	2
738.689	10
738.713	12
738.737	17
738.762	14
738.786	11
738.81	-2
738.834	15
738.858	-2
738.882	20
738.906	8
738.93	2
738.954	4
738.978	7
739.002	-1
739.026	5
739.05	31
739.074	-1
739.098	33
739.122	18
739.146	17
739.17	18
739.194	16
739.218	-3
739.242	-1
739.266	4
739.29	-1
739.314	-2
739.338	5
739.362	13
739.386	9
739.41	-11
739.434	-6
739.458	18
739.482	8
739.506	7
739.53	1
739.554	13
739.577	10
739.601	8
739.625	-4
739.649	4
739.673	1
739.697	10
739.721	10
739.745	15
739.769	19
739.793	9
739.817	8
739.841	2
739.865	14
739.889	0
739.912	15
739.936	-2
739.96	0
739.984	17
740.008	1
740.032	4
740.056	10
740.08	4
740.104	-8
740.127	12
740.151	22
740.175	7
740.199	10
740.223	50
740.247	13
740.271	3
740.295	6
740.318	-4
740.342	13
740.366	22
740.39	19
740.414	8
740.438	2
740.461	21
740.485	6
740.509	-6
740.533	-1
740.557	-2
740.581	12
740.604	-12
740.628	-2
740.652	10
740.676	-5
740.7	0
740.723	11
740.747	-3
740.771	4
740.795	7
740.819	6
740.842	10
740.866	16
740.89	11
740.914	1
740.938	6
740.961	8
740.985	6
741.009	-11
741.033	5
741.056	12
741.08	-2
741.104	0
741.128	7
741.151	12
741.175	9
741.199	21
741.223	8
741.246	1
741.27	13
741.294	2
741.318	-3
741.341	-8
741.365	1
741.389	6
741.413	13
741.436	2
741.46	12
741.484	9
741.507	-5
741.531	13
741.555	3
741.579	1
741.602	1
741.626	17
741.65	-4
741.673	7
741.697	6
741.721	14
741.744	-12
741.768	-8
741.792	6
741.815	0
741.839	16
741.863	29
741.886	24
741.91	16
741.934	0
741.957	-17
741.981	11
742.005	-3
742.028	-10
742.052	-3
742.075	9
742.099	13
742.123	5
742.146	-8
742.17	18
742.194	-4
742.217	3
742.241	-2
742.264	2
742.288	9
742.312	-2
742.335	-2
742.359	13
742.382	5
742.406	4
742.43	6
742.453	16
742.477	9
742.5	4
742.524	-14
742.548	0
742.571	-5
742.595	6
742.618	3
742.642	1
742.665	19
742.689	1
742.712	13
742.736	6
742.76	19
742.783	18
742.807	10
742.83	12
742.854	-2
742.877	10
742.901	5
742.924	4
742.948	-4
742.971	-8
742.995	2
743.018	-5
743.042	0
743.065	8
743.089	-15
743.112	-1
743.136	-3
743.159	6
743.183	1
743.206	9
743.23	4
743.253	0
743.277	10
743.3	9
743.324	19
743.347	-7
743.371	10
743.394	13
743.418	2
743.441	4
743.465	13
743.488	2
743.512	-1
743.535	7
743.558	-6
743.582	6
743.605	9
743.629	5
743.652	0
743.676	-7
743.699	6
743.723	21
743.746	24
743.769	16
743.793	9
743.816	6
743.84	10
743.863	10
743.886	5
743.91	10
743.933	-5
743.957	5
743.98	16
744.003	4
744.027	-1
744.05	-6
744.074	10
744.097	-3
744.12	8
744.144	-1
744.167	2
744.19	5
744.214	3
744.237	-22
744.26	13
744.284	13
744.307	-8
744.331	13
744.354	1
744.377	8
744.401	2
744.424	2
744.447	-25
744.471	-2
