Data from HighRes_H2D2_15_04_11_07_2024_HR4C61891__19__15-05-36-343.txt Node

Date: Thu Nov 07 15:05:36 EST 2024
User: crc00042
Spectrometer: HR4C6189
Trigger mode: 4
Integration Time (sec): 1.000000E-1
Scans to average: 1
Electric dark correction enabled: true
Nonlinearity correction enabled: false
Boxcar width: 0
XAxis mode: Wavelengths
Number of Pixels in Spectrum: 3648
>>>>>Begin Spectral Data<<<<<
639.567	-90
639.602	-90
639.636	-90
639.67	-36
639.704	-18
639.738	-7
639.773	11
639.807	-1
639.841	0
639.875	1
639.909	-9
639.943	-9
639.978	-5
640.012	11
640.046	-1
640.08	11
640.114	10
640.148	-12
640.182	0
640.217	-6
640.251	31
640.285	-3
640.319	-11
640.353	-6
640.387	-6
640.421	9
640.455	5
640.49	7
640.524	4
640.558	0
640.592	-9
640.626	-7
640.66	20
640.694	-6
640.728	2
640.762	7
640.796	16
640.83	40
640.865	-9
640.899	-6
640.933	4
640.967	-12
641.001	0
641.035	8
641.069	3
641.103	-24
641.137	-6
641.171	-7
641.205	6
641.239	-9
641.273	3
641.307	2
641.341	6
641.375	-1
641.409	-1
641.443	-13
641.477	-5
641.511	19
641.545	6
641.579	-5
641.614	-2
641.648	-9
641.682	-9
641.716	1
641.75	-2
641.784	-11
641.818	-18
641.852	-11
641.886	-22
641.919	3
641.953	-4
641.987	-26
642.021	-10
642.055	7
642.089	8
642.123	-26
642.157	-13
642.191	-1
642.225	5
642.259	-2
642.293	9
642.327	-9
642.361	1
642.395	1
642.429	1
642.463	-11
642.497	15
642.531	-3
642.565	-3
642.599	13
642.633	-12
642.666	-9
642.7	5
642.734	4
642.768	4
642.802	-10
642.836	-2
642.87	8
642.904	12
642.938	0
642.972	-16
643.005	8
643.039	10
643.073	12
643.107	15
643.141	9
643.175	-6
643.209	-18
643.243	4
643.276	5
643.31	-17
643.344	-5
643.378	-15
643.412	12
643.446	10
643.48	-17
643.513	4
643.547	-4
643.581	1
643.615	18
643.649	10
643.683	-1
643.716	-7
643.75	-17
643.784	-7
643.818	-2
643.852	-17
643.886	6
643.919	1
643.953	11
643.987	2
644.021	15
644.055	8
644.088	-2
644.122	-7
644.156	-4
644.19	11
644.224	-2
644.257	15
644.291	2
644.325	-6
644.359	-5
644.392	16
644.426	18
644.46	12
644.494	-15
644.527	-12
644.561	7
644.595	1
644.629	-11
644.662	-16
644.696	11
644.73	16
644.764	3
644.797	-6
644.831	-11
644.865	4
644.899	-10
644.932	6
644.966	-10
645	8
645.033	0
645.067	-1
645.101	-2
645.135	9
645.168	-2
645.202	-12
645.236	-10
645.269	11
645.303	-12
645.337	-10
645.37	-6
645.404	-3
645.438	5
645.471	-12
645.505	12
645.539	-3
645.572	-24
645.606	-10
645.64	5
645.673	4
645.707	12
645.741	3
645.774	5
645.808	10
645.842	-1
645.875	6
645.909	0
645.943	5
645.976	0
646.01	-3
646.043	8
646.077	-6
646.111	5
646.144	12
646.178	-6
646.212	-19
646.245	-16
646.279	13
646.312	12
646.346	7
646.38	0
646.413	5
646.447	11
646.48	-2
646.514	1
646.547	-3
646.581	-8
646.615	-19
646.648	-2
646.682	3
646.715	-2
646.749	1
646.782	-21
646.816	-10
646.85	4
646.883	-12
646.917	-1
646.95	6
646.984	4
647.017	-22
647.051	-6
647.084	10
647.118	6
647.151	-7
647.185	2
647.218	-13
647.252	-3
647.285	-15
647.319	-12
647.353	2
647.386	8
647.42	-5
647.453	3
647.487	7
647.52	8
647.553	3
647.587	-4
647.62	1
647.654	0
647.687	7
647.721	18
647.754	10
647.788	15
647.821	-11
647.855	12
647.888	10
647.922	-9
647.955	20
647.989	-5
648.022	-4
648.055	9
648.089	-4
648.122	15
648.156	-10
648.189	5
648.223	9
648.256	11
648.29	20
648.323	8
648.356	-9
648.39	-10
648.423	5
648.457	-12
648.49	9
648.523	11
648.557	-5
648.59	5
648.624	3
648.657	3
648.69	26
648.724	14
648.757	13
648.791	17
648.824	7
648.857	14
648.891	14
648.924	-5
648.957	15
648.991	-11
649.024	12
649.057	9
649.091	-2
649.124	-7
649.158	-4
649.191	24
649.224	9
649.258	14
649.291	7
649.324	7
649.358	-4
649.391	17
649.424	-13
649.458	-8
649.491	-18
649.524	-12
649.557	-8
649.591	-4
649.624	7
649.657	8
649.691	-3
649.724	-4
649.757	-4
649.791	-6
649.824	16
649.857	11
649.89	4
649.924	-12
649.957	-3
649.99	-8
650.023	1
650.057	0
650.09	-3
650.123	3
650.157	7
650.19	-7
650.223	-5
650.256	-16
650.29	-11
650.323	5
650.356	19
650.389	-1
650.423	-23
650.456	-4
650.489	7
650.522	3
650.555	8
650.589	11
650.622	12
650.655	17
650.688	4
650.721	-4
650.755	-1
650.788	7
650.821	-18
650.854	3
650.887	10
650.921	6
650.954	-15
650.987	-9
651.02	-12
651.053	-8
651.087	-4
651.12	9
651.153	-10
651.186	12
651.219	-21
651.252	7
651.286	5
651.319	0
651.352	10
651.385	0
651.418	7
651.451	5
651.484	7
651.518	-19
651.551	7
651.584	-5
651.617	5
651.65	10
651.683	22
651.716	-11
651.749	-21
651.783	-1
651.816	13
651.849	17
651.882	-2
651.915	-2
651.948	13
651.981	3
652.014	-7
652.047	-1
652.08	7
652.114	3
652.147	-4
652.18	11
652.213	26
652.246	17
652.279	-11
652.312	8
652.345	6
652.378	-15
652.411	22
652.444	21
652.477	-12
652.51	-13
652.543	-12
652.576	6
652.609	6
652.642	7
652.675	4
652.709	-3
652.742	11
652.775	4
652.808	9
652.841	-10
652.874	13
652.907	-2
652.94	-6
652.973	-12
653.006	-15
653.039	-8
653.072	-12
653.105	12
653.138	-10
653.171	15
653.204	-2
653.237	-10
653.27	2
653.303	20
653.336	18
653.368	-6
653.401	2
653.434	4
653.467	12
653.5	-13
653.533	-8
653.566	1
653.599	0
653.632	-6
653.665	10
653.698	-7
653.731	-3
653.764	7
653.797	14
653.83	15
653.863	-4
653.896	6
653.929	0
653.961	3
653.994	5
654.027	-12
654.06	1
654.093	9
654.126	2
654.159	-17
654.192	3
654.225	-3
654.258	-7
654.29	-6
654.323	-5
654.356	-6
654.389	5
654.422	-7
654.455	4
654.488	11
654.521	-8
654.553	-24
654.586	20
654.619	-7
654.652	7
654.685	-1
654.718	-2
654.751	3
654.783	-15
654.816	4
654.849	12
654.882	5
654.915	-4
654.948	2
654.98	-11
655.013	-4
655.046	6
655.079	-6
655.112	7
655.144	-6
655.177	-7
655.21	32
655.243	23
655.276	9
655.308	0
655.341	0
655.374	7
655.407	4
655.44	7
655.472	10
655.505	16
655.538	-9
655.571	22
655.603	9
655.636	6
655.669	10
655.702	9
655.734	-7
655.767	2
655.8	15
655.833	14
655.865	19
655.898	6
655.931	3
655.964	12
655.996	17
656.029	30
656.062	25
656.095	55
656.127	78
656.16	208
656.193	620
656.225	966
656.258	547
656.291	207
656.324	169
656.356	339
656.389	757
656.422	678
656.454	232
656.487	77
656.52	40
656.552	2
656.585	3
656.618	10
656.65	13
656.683	5
656.716	1
656.748	-10
656.781	1
656.814	3
656.846	2
656.879	-1
656.912	11
656.944	-18
656.977	-7
657.01	-2
657.042	3
657.075	14
657.108	6
657.14	3
657.173	15
657.205	25
657.238	2
657.271	-6
657.303	-2
657.336	-4
657.369	-11
657.401	-9
657.434	7
657.466	6
657.499	-1
657.532	-6
657.564	-3
657.597	-11
657.629	12
657.662	-6
657.694	0
657.727	-12
657.76	10
657.792	1
657.825	-19
657.857	3
657.89	-15
657.922	10
657.955	-7
657.987	10
658.02	19
658.053	17
658.085	16
658.118	4
658.15	11
658.183	8
658.215	1
658.248	4
658.28	4
658.313	11
658.345	11
658.378	-2
658.41	-7
658.443	2
658.475	7
658.508	-6
658.54	0
658.573	-10
658.605	-7
658.638	4
658.67	1
658.703	8
658.735	-8
658.768	-6
658.8	-6
658.833	22
658.865	9
658.898	8
658.93	-7
658.963	6
658.995	-12
659.028	5
659.06	-9
659.092	4
659.125	-7
659.157	-1
659.19	-6
659.222	-9
659.255	3
659.287	8
659.32	0
659.352	-9
659.384	4
659.417	1
659.449	12
659.482	9
659.514	9
659.546	-20
659.579	-3
659.611	-10
659.644	6
659.676	0
659.708	4
659.741	-8
659.773	9
659.806	3
659.838	-10
659.87	5
659.903	-12
659.935	13
659.967	3
660	8
660.032	-15
660.065	11
660.097	8
660.129	-2
660.162	7
660.194	15
660.226	11
660.259	11
660.291	-12
660.323	-23
660.356	-4
660.388	-7
660.42	-2
660.453	3
660.485	-1
660.517	8
660.55	-1
660.582	-4
660.614	10
660.647	-8
660.679	-12
660.711	2
660.743	-18
660.776	-16
660.808	-2
660.84	3
660.873	0
660.905	6
660.937	-11
660.969	-17
661.002	-5
661.034	11
661.066	-3
661.099	8
661.131	9
661.163	2
661.195	10
661.228	5
661.26	-1
661.292	-17
661.324	-1
661.357	3
661.389	6
661.421	10
661.453	0
661.485	2
661.518	0
661.55	-9
661.582	-8
661.614	-17
661.647	3
661.679	-3
661.711	7
661.743	-25
661.775	-21
661.808	5
661.84	-8
661.872	7
661.904	-7
661.936	-9
661.969	0
662.001	-7
662.033	4
662.065	-6
662.097	20
662.129	2
662.162	-9
662.194	16
662.226	-2
662.258	2
662.29	21
662.322	-11
662.355	-6
662.387	7
662.419	8
662.451	8
662.483	1
662.515	12
662.547	5
662.58	-8
662.612	-12
662.644	-17
662.676	-6
662.708	8
662.74	-3
662.772	-10
662.804	3
662.836	19
662.869	-7
662.901	10
662.933	1
662.965	9
662.997	-10
663.029	-5
663.061	2
663.093	-4
663.125	0
663.157	4
663.189	-13
663.221	4
663.254	-9
663.286	-7
663.318	-11
663.35	-3
663.382	-8
663.414	4
663.446	-12
663.478	-2
663.51	25
663.542	-6
663.574	0
663.606	1
663.638	-12
663.67	-12
663.702	3
663.734	10
663.766	22
663.798	0
663.83	-3
663.862	7
663.894	0
663.926	-2
663.958	9
663.99	19
664.022	-11
664.054	4
664.086	-7
664.118	-3
664.15	-6
664.182	8
664.214	3
664.246	4
664.278	18
664.31	18
664.342	-3
664.374	-5
664.406	5
664.438	-4
664.47	10
664.502	11
664.534	-4
664.566	-11
664.598	-7
664.63	1
664.662	-3
664.693	-17
664.725	-3
664.757	-12
664.789	-18
664.821	12
664.853	2
664.885	-17
664.917	-9
664.949	3
664.981	4
665.013	15
665.045	5
665.076	-8
665.108	0
665.14	-9
665.172	-6
665.204	-1
665.236	-1
665.268	20
665.3	-2
665.331	-17
665.363	18
665.395	16
665.427	7
665.459	-2
665.491	9
665.523	7
665.555	-12
665.586	8
665.618	3
665.65	-7
665.682	17
665.714	2
665.746	-11
665.777	13
665.809	-3
665.841	12
665.873	-3
665.905	-13
665.937	26
665.968	2
666	9
666.032	-3
666.064	-3
666.096	-3
666.127	9
666.159	23
666.191	7
666.223	10
666.255	15
666.286	7
666.318	-4
666.35	24
666.382	16
666.413	3
666.445	-16
666.477	7
666.509	0
666.54	1
666.572	4
666.604	6
666.636	-5
666.667	3
666.699	11
666.731	-3
666.763	3
666.794	-1
666.826	-8
666.858	-14
666.89	19
666.921	4
666.953	10
666.985	8
667.017	18
667.048	-12
667.08	6
667.112	3
667.143	-8
667.175	-8
667.207	6
667.238	0
667.27	3
667.302	-12
667.334	-11
667.365	2
667.397	-2
667.429	-6
667.46	-3
667.492	1
667.524	-1
667.555	-12
667.587	-4
667.619	3
667.65	-8
667.682	1
667.714	-11
667.745	-6
667.777	3
667.808	20
667.84	11
667.872	12
667.903	7
667.935	6
667.967	1
667.998	-2
668.03	-9
668.061	-3
668.093	8
668.125	0
668.156	14
668.188	9
668.22	-14
668.251	3
668.283	-2
668.314	11
668.346	4
668.377	-1
668.409	2
668.441	4
668.472	-9
668.504	10
668.535	4
668.567	20
668.599	12
668.63	-2
668.662	3
668.693	-11
668.725	3
668.756	13
668.788	17
668.819	0
668.851	-3
668.882	9
668.914	-1
668.946	-8
668.977	-10
669.009	-17
669.04	-11
669.072	12
669.103	6
669.135	-1
669.166	-2
669.198	8
669.229	13
669.261	7
669.292	4
669.324	2
669.355	-1
669.387	-2
669.418	11
669.45	7
669.481	7
669.513	9
669.544	16
669.576	1
669.607	19
669.639	17
669.67	-3
669.701	7
669.733	-1
669.764	6
669.796	7
669.827	-5
669.859	-7
669.89	7
669.922	19
669.953	17
669.985	1
670.016	3
670.047	7
670.079	-5
670.11	15
670.142	10
670.173	2
670.204	0
670.236	3
670.267	-5
670.299	-14
670.33	-7
670.362	-4
670.393	-11
670.424	5
670.456	-6
670.487	3
670.518	11
670.55	1
670.581	-9
670.613	-8
670.644	-10
670.675	-12
670.707	-19
670.738	-2
670.769	-3
670.801	-10
670.832	0
670.864	-7
670.895	7
670.926	11
670.958	10
670.989	-3
671.02	-6
671.052	-11
671.083	-5
671.114	2
671.146	6
671.177	-3
671.208	-18
671.24	-9
671.271	-9
671.302	9
671.333	-10
671.365	7
671.396	9
671.427	12
671.459	8
671.49	-11
671.521	7
671.553	-3
671.584	2
671.615	-14
671.646	9
671.678	4
671.709	0
671.74	-11
671.771	-7
671.803	-5
671.834	7
671.865	4
671.896	18
671.928	0
671.959	-7
671.99	7
672.021	-4
672.053	-11
672.084	17
672.115	9
672.146	-12
672.178	-23
672.209	-7
672.24	-3
672.271	20
672.303	21
672.334	-1
672.365	-3
672.396	10
672.427	-8
672.459	19
672.49	17
672.521	8
672.552	8
672.583	1
672.615	-2
672.646	8
672.677	1
672.708	-10
672.739	-18
672.77	22
672.802	13
672.833	8
672.864	6
672.895	-19
672.926	0
672.957	-5
672.989	-7
673.02	-13
673.051	-5
673.082	8
673.113	3
673.144	8
673.175	3
673.206	-6
673.238	-8
673.269	-15
673.3	1
673.331	13
673.362	-4
673.393	11
673.424	5
673.455	11
673.487	14
673.518	8
673.549	-7
673.58	2
673.611	-5
673.642	0
673.673	-17
673.704	-5
673.735	9
673.766	7
673.797	-12
673.828	-4
673.86	6
673.891	5
673.922	1
673.953	-6
673.984	11
674.015	18
674.046	-1
674.077	1
674.108	-17
674.139	-11
674.17	4
674.201	8
674.232	-7
674.263	-15
674.294	-15
674.325	-7
674.356	-2
674.387	21
674.418	3
674.449	2
674.48	-5
674.511	-10
674.542	12
674.573	6
674.604	21
674.635	-3
674.666	-9
674.697	3
674.728	0
674.759	4
674.79	-2
674.821	-12
674.852	-8
674.883	6
674.914	-8
674.945	4
674.976	-5
675.007	-3
675.038	4
675.069	-18
675.1	-12
675.131	-1
675.162	-21
675.193	-10
675.224	-12
675.254	7
675.285	11
675.316	18
675.347	2
675.378	-1
675.409	-11
675.44	6
675.471	-6
675.502	-8
675.533	-4
675.564	5
675.595	-2
675.625	21
675.656	8
675.687	10
675.718	-12
675.749	0
675.78	12
675.811	-2
675.842	3
675.873	0
675.903	-2
675.934	1
675.965	-5
675.996	-18
676.027	-4
676.058	-4
676.089	-8
676.119	-2
676.15	-1
676.181	-5
676.212	4
676.243	-4
676.274	1
676.304	4
676.335	3
676.366	11
676.397	-15
676.428	0
676.459	17
676.489	12
676.52	6
676.551	8
676.582	-12
676.613	6
676.643	-25
676.674	7
676.705	3
676.736	5
676.767	25
676.797	7
676.828	1
676.859	2
676.89	-3
676.92	6
676.951	6
676.982	-6
677.013	-7
677.044	35
677.074	1
677.105	-35
677.136	-6
677.167	-5
677.197	4
677.228	0
677.259	7
677.289	-3
677.32	8
677.351	4
677.382	-4
677.412	-7
677.443	9
677.474	1
677.505	-9
677.535	-7
677.566	-4
677.597	-8
677.627	9
677.658	-11
677.689	12
677.72	5
677.75	-5
677.781	2
677.812	-15
677.842	4
677.873	6
677.904	1
677.934	-5
677.965	-5
677.996	-28
678.026	-3
678.057	8
678.088	-14
678.118	1
678.149	-19
678.18	4
678.21	4
678.241	4
678.272	12
678.302	0
678.333	1
678.363	-5
678.394	-1
678.425	-6
678.455	3
678.486	8
678.517	-9
678.547	-4
678.578	0
678.608	-12
678.639	4
678.67	-11
678.7	-11
678.731	-16
678.761	0
678.792	0
678.823	2
678.853	9
678.884	-10
678.914	-5
678.945	-10
678.975	-2
679.006	-5
679.037	4
679.067	7
679.098	13
679.128	-3
679.159	-8
679.189	0
679.22	-24
679.25	10
679.281	0
679.312	-6
679.342	21
679.373	28
679.403	0
679.434	11
679.464	5
679.495	-4
679.525	12
679.556	14
679.586	6
679.617	5
679.647	-8
679.678	11
679.708	4
679.739	0
679.769	-8
679.8	4
679.83	6
679.861	2
679.891	-17
679.922	-9
679.952	-2
679.983	5
680.013	9
680.044	-2
680.074	26
680.105	11
680.135	8
680.165	26
680.196	3
680.226	-8
680.257	11
680.287	-11
680.318	-3
680.348	-8
680.379	5
680.409	22
680.439	-9
680.47	3
680.5	11
680.531	13
680.561	3
680.592	-7
680.622	10
680.652	4
680.683	8
680.713	2
680.744	-18
680.774	-1
680.804	12
680.835	1
680.865	-3
680.896	-2
680.926	13
680.956	-1
680.987	-5
681.017	-23
681.047	-3
681.078	-8
681.108	7
681.139	-4
681.169	-11
681.199	-19
681.23	-2
681.26	-9
681.29	11
681.321	-24
681.351	-6
681.381	-4
681.412	-7
681.442	-1
681.472	19
681.503	1
681.533	8
681.563	11
681.594	-3
681.624	6
681.654	-4
681.685	-9
681.715	-12
681.745	4
681.775	-15
681.806	15
681.836	1
681.866	-8
681.897	7
681.927	-12
681.957	-16
681.987	-2
682.018	6
682.048	12
682.078	-17
682.109	25
682.139	6
682.169	0
682.199	-4
682.23	2
682.26	10
682.29	-5
682.32	2
682.351	8
682.381	11
682.411	10
682.441	-18
682.472	-4
682.502	0
682.532	-9
682.562	-11
682.592	4
682.623	17
682.653	-1
682.683	5
682.713	-3
682.743	-2
682.774	2
682.804	7
682.834	13
682.864	-16
682.894	-6
682.925	1
682.955	-6
682.985	-1
683.015	-5
683.045	13
683.076	-10
683.106	5
683.136	-3
683.166	3
683.196	1
683.226	7
683.257	-11
683.287	-6
683.317	-7
683.347	-19
683.377	-6
683.407	4
683.437	3
683.468	14
683.498	3
683.528	-2
683.558	1
683.588	-21
683.618	-3
683.648	-2
683.678	9
683.708	16
683.739	-3
683.769	6
683.799	-9
683.829	1
683.859	5
683.889	2
683.919	-13
683.949	5
683.979	-9
684.009	-2
684.039	-2
684.07	-4
684.1	4
684.13	2
684.16	10
684.19	-4
684.22	8
684.25	7
684.28	-6
684.31	20
684.34	22
684.37	5
684.4	-12
684.43	4
684.46	-9
684.49	-3
684.52	5
684.55	-3
684.58	-14
684.61	9
684.64	13
684.67	11
684.7	13
684.73	22
684.76	-5
684.79	28
684.82	5
684.85	-8
684.88	9
684.91	7
684.94	0
684.97	-13
685	-18
685.03	-6
685.06	-3
685.09	5
685.12	18
685.15	-15
685.18	-10
685.21	8
685.24	18
685.27	9
685.3	1
685.33	8
685.36	-11
685.39	-3
685.42	-3
685.45	-13
685.48	-4
685.51	-3
685.54	17
685.569	10
685.599	9
685.629	8
685.659	5
685.689	0
685.719	0
685.749	-5
685.779	3
685.809	14
685.839	4
685.869	6
685.898	-2
685.928	5
685.958	-4
685.988	17
686.018	9
686.048	14
686.078	17
686.108	25
686.137	-1
686.167	8
686.197	-7
686.227	11
686.257	23
686.287	18
686.317	10
686.346	-2
686.376	1
686.406	-6
686.436	13
686.466	6
686.496	5
686.525	10
686.555	3
686.585	13
686.615	28
686.645	11
686.675	2
686.704	-1
686.734	9
686.764	-4
686.794	2
686.824	-7
686.853	9
686.883	2
686.913	16
686.943	6
686.973	-2
687.002	10
687.032	16
687.062	-6
687.092	24
687.121	-20
687.151	11
687.181	6
687.211	15
687.24	4
687.27	-8
687.3	-10
687.33	6
687.359	-22
687.389	14
687.419	-2
687.449	7
687.478	17
687.508	8
687.538	3
687.568	-6
687.597	-1
687.627	6
687.657	-13
687.686	8
687.716	20
687.746	-16
687.776	-11
687.805	22
687.835	-9
687.865	13
687.894	9
687.924	-20
687.954	-11
687.983	2
688.013	8
688.043	14
688.072	-4
688.102	18
688.132	11
688.161	9
688.191	-7
688.221	12
688.25	0
688.28	5
688.31	0
688.339	5
688.369	1
688.399	6
688.428	-10
688.458	8
688.488	4
688.517	20
688.547	6
688.576	25
688.606	0
688.636	-3
688.665	6
688.695	4
688.725	16
688.754	15
688.784	7
688.813	6
688.843	2
688.873	-5
688.902	-5
688.932	11
688.961	7
688.991	-1
689.02	11
689.05	-9
689.08	6
689.109	20
689.139	-5
689.168	0
689.198	3
689.227	-5
689.257	-1
689.287	7
689.316	-9
689.346	-5
689.375	-9
689.405	-4
689.434	-7
689.464	-2
689.493	-1
689.523	-4
689.552	-11
689.582	3
689.611	4
689.641	15
689.67	8
689.7	8
689.73	4
689.759	4
689.789	11
689.818	12
689.848	7
689.877	16
689.906	-4
689.936	-4
689.965	-4
689.995	5
690.024	7
690.054	1
690.083	-1
690.113	1
690.142	8
690.172	5
690.201	-9
690.231	-10
690.26	7
690.29	14
690.319	31
690.348	1
690.378	14
690.407	8
690.437	5
690.466	1
690.496	-3
690.525	0
690.555	0
690.584	-6
690.613	-3
690.643	6
690.672	21
690.702	8
690.731	-16
690.76	-5
690.79	0
690.819	-4
690.849	9
690.878	5
690.907	-14
690.937	1
690.966	7
690.996	-4
691.025	-17
691.054	-4
691.084	-2
691.113	2
691.142	4
691.172	-5
691.201	13
691.23	9
691.26	13
691.289	16
691.319	9
691.348	0
691.377	18
691.407	18
691.436	1
691.465	15
691.495	3
691.524	-4
691.553	-18
691.583	-2
691.612	16
691.641	4
691.67	-5
691.7	6
691.729	-9
691.758	1
691.788	15
691.817	6
691.846	-4
691.876	-6
691.905	14
691.934	-8
691.963	16
691.993	15
692.022	-4
692.051	-3
692.081	5
692.11	-2
692.139	2
692.168	-1
692.198	16
692.227	6
692.256	10
692.285	-6
692.315	0
692.344	-2
692.373	4
692.402	-11
692.432	0
692.461	6
692.49	7
692.519	-2
692.548	7
692.578	16
692.607	1
692.636	0
692.665	14
692.694	-5
692.724	-2
692.753	6
692.782	8
692.811	-3
692.84	9
692.87	5
692.899	2
692.928	-9
692.957	10
692.986	13
693.016	3
693.045	-2
693.074	5
693.103	6
693.132	2
693.161	7
693.191	5
693.22	-4
693.249	-10
693.278	6
693.307	12
693.336	-6
693.365	-5
693.395	0
693.424	0
693.453	28
693.482	6
693.511	20
693.54	12
693.569	26
693.598	4
693.628	11
693.657	5
693.686	16
693.715	24
693.744	9
693.773	13
693.802	19
693.831	-2
693.86	7
693.889	23
693.919	5
693.948	-2
693.977	6
694.006	7
694.035	10
694.064	-9
694.093	5
694.122	6
694.151	7
694.18	11
694.209	22
694.238	-1
694.267	20
694.296	14
694.325	-9
694.354	17
694.383	1
694.412	-8
694.441	7
694.471	1
694.5	-30
694.529	-17
694.558	10
694.587	17
694.616	3
694.645	3
694.674	4
694.703	20
694.732	-6
694.761	16
694.79	14
694.819	0
694.848	-5
694.877	24
694.906	10
694.935	10
694.963	0
694.992	0
695.021	10
695.05	9
695.079	-10
695.108	-17
695.137	28
695.166	25
695.195	2
695.224	24
695.253	1
695.282	1
695.311	-3
695.34	17
695.369	18
695.398	5
695.427	11
695.456	9
695.485	5
695.513	-2
695.542	23
695.571	15
695.6	28
695.629	4
695.658	-8
695.687	3
695.716	11
695.745	23
695.774	-2
695.802	3
695.831	12
695.86	2
695.889	5
695.918	-10
695.947	-3
695.976	4
696.005	1
696.033	8
696.062	4
696.091	6
696.12	5
696.149	2
696.178	-9
696.207	-10
696.235	-11
696.264	-5
696.293	1
696.322	12
696.351	11
696.38	-1
696.408	-8
696.437	-4
696.466	12
696.495	9
696.524	11
696.553	10
696.581	2
696.61	-7
696.639	8
696.668	0
696.697	-2
696.725	15
696.754	10
696.783	-9
696.812	-11
696.84	4
696.869	9
696.898	9
696.927	1
696.956	1
696.984	-8
697.013	3
697.042	13
697.071	13
697.099	5
697.128	12
697.157	31
697.186	23
697.214	3
697.243	3
697.272	0
697.301	-2
697.329	8
697.358	20
697.387	15
697.415	4
697.444	-1
697.473	-20
697.502	-10
697.53	4
697.559	5
697.588	12
697.616	6
697.645	1
697.674	2
697.703	3
697.731	9
697.76	-6
697.789	1
697.817	7
697.846	29
697.875	-5
697.903	25
697.932	4
697.961	0
697.989	-7
698.018	8
698.047	1
698.075	2
698.104	-3
698.133	8
698.161	-11
698.19	-12
698.218	-4
698.247	8
698.276	4
698.304	16
698.333	11
698.362	6
698.39	1
698.419	20
698.447	7
698.476	-6
698.505	-2
698.533	6
698.562	7
698.591	-6
698.619	-21
698.648	19
698.676	18
698.705	-8
698.733	-15
698.762	5
698.791	10
698.819	12
698.848	3
698.876	5
698.905	7
698.933	-12
698.962	8
698.991	4
699.019	15
699.048	3
699.076	13
699.105	-10
699.133	4
699.162	4
699.19	19
699.219	9
699.248	13
699.276	3
699.305	-8
699.333	-4
699.362	3
699.39	13
699.419	6
699.447	13
699.476	9
699.504	12
699.533	5
699.561	-2
699.59	10
699.618	7
699.647	6
699.675	3
699.704	10
699.732	14
699.761	15
699.789	-12
699.818	15
699.846	6
699.874	19
699.903	4
699.931	13
699.96	-3
699.988	3
700.017	-1
700.045	-7
700.074	-18
700.102	-9
700.13	-10
700.159	7
700.187	8
700.216	-15
700.244	-16
700.273	-19
700.301	-7
700.329	1
700.358	24
700.386	10
700.415	3
700.443	4
700.472	0
700.5	1
700.528	12
700.557	12
700.585	0
700.614	5
700.642	9
700.67	27
700.699	17
700.727	2
700.755	-6
700.784	-3
700.812	-2
700.841	11
700.869	-13
700.897	-12
700.926	-5
700.954	-4
700.982	17
701.011	-3
701.039	8
701.067	6
701.096	10
701.124	-9
701.152	-10
701.181	-1
701.209	-5
701.237	-9
701.266	-18
701.294	-15
701.322	1
701.351	-1
701.379	13
701.407	-2
701.435	-5
701.464	0
701.492	23
701.52	2
701.549	4
701.577	-10
701.605	5
701.634	0
701.662	21
701.69	5
701.718	-7
701.747	10
701.775	6
701.803	2
701.831	8
701.86	-8
701.888	-1
701.916	-6
701.944	12
701.973	-3
702.001	-4
702.029	-5
702.057	-11
702.086	-3
702.114	-13
702.142	6
702.17	-1
702.199	-1
702.227	3
702.255	6
702.283	11
702.311	20
702.34	2
702.368	-12
702.396	-6
702.424	1
702.452	-9
702.481	5
702.509	7
702.537	16
702.565	20
702.593	-15
702.621	6
702.65	18
702.678	2
702.706	10
702.734	1
702.762	-2
702.79	4
702.819	-1
702.847	5
702.875	1
702.903	8
702.931	-1
702.959	-3
702.988	-3
703.016	-17
703.044	4
703.072	-4
703.1	-13
703.128	2
703.156	8
703.184	-1
703.212	7
703.241	7
703.269	-9
703.297	6
703.325	-5
703.353	1
703.381	9
703.409	7
703.437	1
703.465	2
703.493	-7
703.522	15
703.55	3
703.578	-10
703.606	-1
703.634	10
703.662	-3
703.69	6
703.718	5
703.746	12
703.774	-3
703.802	12
703.83	0
703.858	3
703.886	12
703.914	-13
703.942	7
703.97	-6
703.998	-8
704.027	8
704.055	18
704.083	5
704.111	-7
704.139	-3
704.167	-1
704.195	7
704.223	0
704.251	-14
704.279	-4
704.307	1
704.335	-15
704.363	-4
704.391	-3
704.419	-7
704.447	-11
704.475	-6
704.503	-3
704.531	5
704.558	0
704.586	8
704.614	7
704.642	0
704.67	-17
704.698	1
704.726	11
704.754	2
704.782	1
704.81	8
704.838	19
704.866	5
704.894	-11
704.922	0
704.95	5
704.978	9
705.006	-1
705.034	13
705.061	5
705.089	2
705.117	0
705.145	-2
705.173	-1
705.201	7
705.229	26
705.257	-4
705.285	11
705.313	3
705.34	-5
705.368	-11
705.396	9
705.424	16
705.452	2
705.48	-5
705.508	0
705.536	-5
705.563	-8
705.591	-1
705.619	5
705.647	-2
705.675	-3
705.703	15
705.731	3
705.758	13
705.786	-3
705.814	9
705.842	12
705.87	4
705.898	1
705.925	-18
705.953	1
705.981	-16
706.009	-13
706.037	-20
706.065	-4
706.092	-2
706.12	-8
706.148	-8
706.176	-3
706.204	8
706.231	-16
706.259	-2
706.287	3
706.315	5
706.342	-2
706.37	3
706.398	0
706.426	-11
706.454	-2
706.481	4
706.509	-1
706.537	-13
706.565	4
706.592	15
706.62	-5
706.648	-3
706.676	-15
706.703	-8
706.731	-3
706.759	-4
706.787	3
706.814	4
706.842	2
706.87	5
706.897	15
706.925	-8
706.953	11
706.981	11
707.008	7
707.036	11
707.064	-12
707.091	-22
707.119	7
707.147	2
707.174	6
707.202	16
707.23	9
707.258	10
707.285	-9
707.313	-19
707.341	0
707.368	-5
707.396	-2
707.424	7
707.451	14
707.479	-6
707.507	-7
707.534	-7
707.562	11
707.59	7
707.617	-3
707.645	-18
707.672	-5
707.7	-7
707.728	9
707.755	12
707.783	4
707.811	4
707.838	-12
707.866	-3
707.893	6
707.921	6
707.949	-8
707.976	-6
708.004	-3
708.031	-1
708.059	-4
708.087	3
708.114	-1
708.142	-15
708.169	-11
708.197	-12
708.225	5
708.252	-17
708.28	-3
708.307	-8
708.335	6
708.362	2
708.39	-10
708.418	-1
708.445	-4
708.473	7
708.5	-10
708.528	-4
708.555	-10
708.583	2
708.61	0
708.638	5
708.665	-13
708.693	-2
708.72	4
708.748	-3
708.776	-10
708.803	18
708.831	15
708.858	13
708.886	9
708.913	6
708.941	-2
708.968	1
708.996	-4
709.023	36
709.051	-5
709.078	-5
709.105	10
709.133	-2
709.16	2
709.188	9
709.215	16
709.243	5
709.27	-12
709.298	-8
709.325	-3
709.353	-1
709.38	-2
709.408	1
709.435	7
709.462	-7
709.49	-1
709.517	-3
709.545	3
709.572	-1
709.6	0
709.627	0
709.655	-10
709.682	-1
709.709	-4
709.737	16
709.764	-2
709.792	28
709.819	13
709.846	5
709.874	21
709.901	10
709.929	22
709.956	25
709.983	-14
710.011	-3
710.038	7
710.066	7
710.093	5
710.12	4
710.148	-4
710.175	4
710.202	-10
710.23	0
710.257	3
710.284	-2
710.312	-2
710.339	9
710.366	-6
710.394	-5
710.421	-10
710.448	-12
710.476	-18
710.503	-5
710.53	15
710.558	5
710.585	-2
710.612	-12
710.64	8
710.667	21
710.694	-9
710.722	-5
710.749	3
710.776	7
710.804	19
710.831	0
710.858	3
710.885	3
710.913	-5
710.94	12
710.967	3
710.995	-5
711.022	8
711.049	-1
711.076	5
711.104	8
711.131	-10
711.158	1
711.185	0
711.213	-9
711.24	-15
711.267	-4
711.294	8
711.322	16
711.349	11
711.376	-11
711.403	9
711.431	-2
711.458	-9
711.485	-6
711.512	17
711.54	4
711.567	7
711.594	7
711.621	0
711.648	17
711.676	-16
711.703	0
711.73	-19
711.757	7
711.784	4
711.812	6
711.839	3
711.866	-8
711.893	-22
711.92	17
711.947	8
711.975	14
712.002	13
712.029	16
712.056	-1
712.083	13
712.11	-27
712.138	-1
712.165	-3
712.192	-9
712.219	-2
712.246	-7
712.273	-14
712.3	-10
712.328	-1
712.355	14
712.382	10
712.409	3
712.436	-13
712.463	-7
712.49	14
712.517	8
712.544	3
712.572	3
712.599	-19
712.626	0
712.653	-2
712.68	-4
712.707	2
712.734	8
712.761	-1
712.788	-8
712.815	4
712.842	6
712.87	0
712.897	-10
712.924	-11
712.951	14
712.978	23
713.005	20
713.032	4
713.059	-1
713.086	6
713.113	-9
713.14	-5
713.167	-3
713.194	25
713.221	3
713.248	0
713.275	-10
713.302	3
713.329	-5
713.356	0
713.383	4
713.41	13
713.437	-7
713.464	3
713.491	15
713.518	-2
713.545	-15
713.572	-3
713.599	-2
713.626	0
713.653	13
713.68	-3
713.707	3
713.734	14
713.761	-8
713.788	3
713.815	-10
713.842	0
713.869	2
713.896	8
713.923	-5
713.95	10
713.977	7
714.004	4
714.031	-5
714.058	-1
714.085	-5
714.112	14
714.139	11
714.165	-2
714.192	-1
714.219	-4
714.246	11
714.273	9
714.3	13
714.327	13
714.354	9
714.381	11
714.408	-16
714.435	1
714.461	-5
714.488	3
714.515	-9
714.542	-7
714.569	-7
714.596	-16
714.623	-1
714.65	-4
714.677	-6
714.703	-2
714.73	10
714.757	3
714.784	17
714.811	-12
714.838	-12
714.865	-1
714.891	6
714.918	7
714.945	-24
714.972	-17
714.999	18
715.026	5
715.052	6
715.079	1
715.106	1
715.133	-2
715.16	-10
715.187	3
715.213	-1
715.24	-1
715.267	4
715.294	-15
715.321	-9
715.347	-5
715.374	-5
715.401	-7
715.428	-5
715.455	11
715.481	-19
715.508	8
715.535	10
715.562	15
715.588	11
715.615	1
715.642	4
715.669	10
715.695	-24
715.722	-8
715.749	4
715.776	13
715.802	8
715.829	-1
715.856	4
715.883	9
715.909	-4
715.936	1
715.963	0
715.99	-9
716.016	0
716.043	-17
716.07	-15
716.096	-20
716.123	4
716.15	12
716.177	4
716.203	16
716.23	14
716.257	3
716.283	5
716.31	-5
716.337	9
716.363	-8
716.39	1
716.417	6
716.443	9
716.47	1
716.497	1
716.523	23
716.55	10
716.577	6
716.603	13
716.63	4
716.657	23
716.683	3
716.71	2
716.737	-1
716.763	-7
716.79	-7
716.817	2
716.843	5
716.87	-4
716.897	-1
716.923	17
716.95	-3
716.976	-8
717.003	1
717.03	8
717.056	10
717.083	-2
717.109	15
717.136	-3
717.163	-8
717.189	27
717.216	-6
717.242	-3
717.269	3
717.296	-6
717.322	16
717.349	5
717.375	-8
717.402	1
717.428	16
717.455	13
717.481	1
717.508	7
717.535	7
717.561	2
717.588	0
717.614	-3
717.641	-4
717.667	12
717.694	3
717.72	1
717.747	7
717.773	-15
717.8	21
717.826	4
717.853	5
717.88	9
717.906	-6
717.933	4
717.959	1
717.986	3
718.012	-11
718.039	7
718.065	5
718.092	13
718.118	-7
718.144	-7
718.171	9
718.197	8
718.224	-4
718.25	-1
718.277	10
718.303	12
718.33	0
718.356	-3
718.383	-19
718.409	-14
718.436	9
718.462	-8
718.489	-12
718.515	11
718.541	14
718.568	7
718.594	2
718.621	5
718.647	-12
718.674	20
718.7	12
718.726	1
718.753	5
718.779	14
718.806	0
718.832	-16
718.858	-2
718.885	-9
718.911	-5
718.938	1
718.964	-15
718.99	-11
719.017	13
719.043	16
719.07	3
719.096	-9
719.122	11
719.149	-6
719.175	6
719.201	4
719.228	-7
719.254	7
719.281	-9
719.307	13
719.333	-10
719.36	-4
719.386	4
719.412	3
719.439	-10
719.465	-1
719.491	-4
719.518	1
719.544	1
719.57	7
719.597	-2
719.623	-3
719.649	5
719.675	4
719.702	11
719.728	24
719.754	-3
719.781	-3
719.807	7
719.833	4
719.86	3
719.886	0
719.912	8
719.938	-12
719.965	-5
719.991	7
720.017	3
720.044	5
720.07	6
720.096	24
720.122	14
720.149	6
720.175	16
720.201	5
720.227	-2
720.254	0
720.28	5
720.306	-9
720.332	8
720.359	9
720.385	23
720.411	6
720.437	6
720.463	-3
720.49	-1
720.516	-15
720.542	-13
720.568	9
720.595	16
720.621	12
720.647	13
720.673	17
720.699	-4
720.725	9
720.752	4
720.778	3
720.804	-3
720.83	11
720.856	5
720.883	-6
720.909	5
720.935	6
720.961	21
720.987	20
721.013	11
721.04	-2
721.066	0
721.092	-1
721.118	-1
721.144	7
721.17	4
721.196	11
721.223	-3
721.249	-12
721.275	10
721.301	16
721.327	16
721.353	16
721.379	8
721.405	8
721.432	7
721.458	-7
721.484	17
721.51	-8
721.536	-5
721.562	11
721.588	1
721.614	-4
721.64	-14
721.666	-8
721.693	-10
721.719	-1
721.745	-13
721.771	-4
721.797	5
721.823	4
721.849	23
721.875	15
721.901	5
721.927	1
721.953	-7
721.979	10
722.005	15
722.031	-4
722.057	16
722.083	-8
722.109	7
722.135	19
722.161	6
722.187	-6
722.214	-6
722.24	6
722.266	-7
722.292	0
722.318	8
722.344	13
722.37	9
722.396	13
722.422	9
722.448	-2
722.474	-9
722.5	3
722.526	8
722.552	9
722.578	7
722.603	4
722.629	-2
722.655	10
722.681	-2
722.707	-1
722.733	-15
722.759	-12
722.785	-4
722.811	2
722.837	18
722.863	17
722.889	15
722.915	8
722.941	6
722.967	-9
722.993	-11
723.019	5
723.045	17
723.071	-1
723.097	14
723.122	9
723.148	3
723.174	4
723.2	8
723.226	2
723.252	-16
723.278	-13
723.304	-1
723.33	-3
723.356	-5
723.381	-1
723.407	-5
723.433	16
723.459	1
723.485	-5
723.511	3
723.537	-1
723.563	8
723.588	1
723.614	17
723.64	4
723.666	-5
723.692	20
723.718	-2
723.744	-1
723.769	-3
723.795	-3
723.821	-4
723.847	1
723.873	20
723.899	7
723.924	13
723.95	-2
723.976	-4
724.002	-2
724.028	-1
724.053	-4
724.079	-2
724.105	-1
724.131	-5
724.157	-3
724.182	-2
724.208	5
724.234	1
724.26	-4
724.286	2
724.311	-1
724.337	-12
724.363	-10
724.389	-8
724.415	-10
724.44	20
724.466	14
724.492	-6
724.518	-7
724.543	-4
724.569	9
724.595	14
724.621	-9
724.646	-9
724.672	-7
724.698	1
724.723	2
724.749	-3
724.775	7
724.801	26
724.826	-16
724.852	-7
724.878	-8
724.904	-3
724.929	-4
724.955	-10
724.981	5
725.006	8
725.032	-12
725.058	12
725.083	-1
725.109	-1
725.135	-12
725.161	-4
725.186	9
725.212	0
725.238	-1
725.263	4
725.289	-11
725.315	4
725.34	0
725.366	4
725.392	-1
725.417	12
725.443	1
725.468	15
725.494	7
725.52	2
725.545	-1
725.571	-2
725.597	-8
725.622	2
725.648	-10
725.674	9
725.699	-5
725.725	-10
725.75	19
725.776	3
725.802	15
725.827	8
725.853	-2
725.878	-1
725.904	0
725.93	-5
725.955	5
725.981	-3
726.006	16
726.032	4
726.057	-4
726.083	-19
726.109	10
726.134	9
726.16	9
726.185	6
726.211	-4
726.236	14
726.262	12
726.288	-6
726.313	19
726.339	14
726.364	0
726.39	22
726.415	10
726.441	1
726.466	3
726.492	8
726.517	7
726.543	-16
726.568	-10
726.594	9
726.619	6
726.645	8
726.67	7
726.696	14
726.721	1
726.747	-2
726.772	-5
726.798	-3
726.823	18
726.849	1
726.874	16
726.9	20
726.925	13
726.951	0
726.976	18
727.002	7
727.027	1
727.053	13
727.078	-2
727.104	16
727.129	-11
727.155	3
727.18	15
727.205	3
727.231	0
727.256	4
727.282	-1
727.307	6
727.333	15
727.358	1
727.383	-9
727.409	-20
727.434	2
727.46	6
727.485	4
727.511	12
727.536	-7
727.561	-2
727.587	-7
727.612	-10
727.637	0
727.663	4
727.688	22
727.714	-6
727.739	-8
727.764	-3
727.79	0
727.815	-1
727.841	24
727.866	10
727.891	1
727.917	-16
727.942	-2
727.967	-16
727.993	-22
728.018	6
728.043	4
728.069	8
728.094	11
728.119	1
728.145	7
728.17	-4
728.195	-11
728.221	-7
728.246	-5
728.271	-24
728.297	2
728.322	5
728.347	8
728.373	10
728.398	-3
728.423	-10
728.448	0
728.474	18
728.499	13
728.524	0
728.55	-4
728.575	8
728.6	-6
728.625	-3
728.651	3
728.676	-3
728.701	8
728.727	10
728.752	2
728.777	-4
728.802	-4
728.828	18
728.853	-1
728.878	-4
728.903	-12
728.929	-6
728.954	1
728.979	20
729.004	14
729.03	-12
729.055	11
729.08	4
729.105	-3
729.13	38
729.156	8
729.181	11
729.206	-7
729.231	-18
729.256	3
729.282	-1
729.307	-4
729.332	-6
729.357	-8
729.382	12
729.408	12
729.433	2
729.458	0
729.483	8
729.508	23
729.533	3
729.559	6
729.584	5
729.609	-8
729.634	14
729.659	-10
729.684	-3
729.71	20
729.735	5
729.76	0
729.785	-7
729.81	16
729.835	3
729.86	3
729.886	14
729.911	0
729.936	-5
729.961	3
729.986	-17
730.011	7
730.036	17
730.061	3
730.086	17
730.112	8
730.137	16
730.162	3
730.187	-7
730.212	11
730.237	16
730.262	4
730.287	7
730.312	17
730.337	-11
730.362	4
730.387	1
730.413	-4
730.438	-10
730.463	-8
730.488	-1
730.513	4
730.538	-4
730.563	4
730.588	-17
730.613	3
730.638	-2
730.663	-2
730.688	8
730.713	6
730.738	12
730.763	-6
730.788	-13
730.813	1
730.838	-3
730.863	3
730.888	-11
730.913	-13
730.938	-13
730.963	0
730.988	-3
731.013	18
731.038	10
731.063	5
731.088	21
731.113	14
731.138	4
731.163	-2
731.188	-1
731.213	3
731.238	6
731.263	5
731.288	-3
731.313	0
731.338	-1
731.363	13
731.388	1
731.413	4
731.438	14
731.463	5
731.487	3
731.512	-6
731.537	-10
731.562	-8
731.587	13
731.612	-11
731.637	-5
731.662	23
731.687	2
731.712	-8
731.737	2
731.762	17
731.786	20
731.811	15
731.836	5
731.861	-8
731.886	-1
731.911	-9
731.936	7
731.961	8
731.986	-11
732.01	5
732.035	0
732.06	3
732.085	-1
732.11	-2
732.135	-21
732.16	8
732.184	-2
732.209	3
732.234	15
732.259	-4
732.284	5
732.309	-11
732.334	-4
732.358	-13
732.383	-18
732.408	1
732.433	-3
732.458	0
732.482	-3
732.507	-16
732.532	-9
732.557	13
732.582	16
732.607	-2
732.631	-23
732.656	-9
732.681	0
732.706	3
732.73	-1
732.755	15
732.78	-8
732.805	-3
732.83	13
732.854	1
732.879	5
732.904	14
732.929	3
732.953	0
732.978	17
733.003	-5
733.028	-6
733.052	20
733.077	7
733.102	23
733.127	11
733.151	-2
733.176	12
733.201	-3
733.226	1
733.25	15
733.275	12
733.3	15
733.324	20
733.349	2
733.374	9
733.399	-4
733.423	3
733.448	4
733.473	6
733.497	-8
733.522	-2
733.547	15
733.571	25
733.596	3
733.621	11
733.646	9
733.67	-3
733.695	-1
733.72	5
733.744	13
733.769	-5
733.794	14
733.818	-10
733.843	-8
733.867	-8
733.892	-2
733.917	-4
733.941	4
733.966	-8
733.991	-4
734.015	10
734.04	0
734.065	9
734.089	28
734.114	-3
734.138	10
734.163	-1
734.188	6
734.212	-2
734.237	15
734.261	2
734.286	-9
734.311	1
734.335	12
734.36	-2
734.384	9
734.409	-1
734.434	-10
734.458	8
734.483	3
734.507	3
734.532	12
734.556	5
734.581	-12
734.606	5
734.63	-13
734.655	-2
734.679	15
734.704	-7
734.728	-7
734.753	-9
734.777	1
734.802	-4
734.826	8
734.851	-1
734.876	11
734.9	5
734.925	6
734.949	16
734.974	-1
734.998	9
735.023	-12
735.047	-13
735.072	18
735.096	20
735.121	14
735.145	2
735.17	-2
735.194	20
735.219	-11
735.243	-7
735.268	4
735.292	13
735.317	3
735.341	-11
735.365	-24
735.39	7
735.414	0
735.439	4
735.463	0
735.488	-6
735.512	-2
735.537	5
735.561	8
735.586	4
735.61	13
735.634	-3
735.659	16
735.683	22
735.708	-9
735.732	-10
735.757	1
735.781	8
735.805	4
735.83	4
735.854	8
735.879	1
735.903	10
735.927	11
735.952	-2
735.976	3
736.001	4
736.025	8
736.049	8
736.074	-3
736.098	-3
736.123	-9
736.147	5
736.171	4
736.196	17
736.22	-11
736.244	10
736.269	4
736.293	4
736.317	-2
736.342	5
736.366	14
736.39	5
736.415	-9
736.439	8
736.463	14
736.488	4
736.512	7
736.536	9
736.561	25
736.585	1
736.609	15
736.634	-3
736.658	-12
736.682	-4
736.707	-9
736.731	-8
736.755	13
736.78	28
736.804	10
736.828	11
736.852	-9
736.877	-10
736.901	-5
736.925	-3
736.949	23
736.974	-3
736.998	-14
737.022	-12
737.047	-3
737.071	-4
737.095	16
737.119	24
737.144	3
737.168	-7
737.192	-9
737.216	-8
737.241	-6
737.265	3
737.289	-4
737.313	-12
737.337	5
737.362	12
737.386	3
737.41	-3
737.434	-4
737.459	3
737.483	4
737.507	6
737.531	10
737.555	4
737.58	10
737.604	5
737.628	-6
737.652	-16
737.676	-13
737.701	7
737.725	2
737.749	10
737.773	8
737.797	-7
737.821	6
737.846	6
737.87	20
737.894	5
737.918	-11
737.942	0
737.966	12
737.99	13
738.015	0
738.039	13
738.063	-7
738.087	5
738.111	10
738.135	28
738.159	8
738.184	5
738.208	7
738.232	-4
738.256	23
738.28	6
738.304	0
738.328	-8
738.352	3
738.376	-1
738.4	16
738.425	2
738.449	-4
738.473	11
738.497	11
738.521	4
738.545	-3
738.569	17
738.593	26
738.617	2
738.641	12
738.665	2
738.689	7
738.713	15
738.737	-3
738.762	21
738.786	-8
738.81	-24
738.834	10
738.858	-1
738.882	5
738.906	-20
738.93	4
738.954	-1
738.978	5
739.002	-4
739.026	12
739.05	4
739.074	-3
739.098	29
739.122	25
739.146	5
739.17	6
739.194	6
739.218	8
739.242	3
739.266	3
739.29	12
739.314	17
739.338	7
739.362	-2
739.386	7
739.41	-6
739.434	5
739.458	1
739.482	7
739.506	7
739.53	-5
739.554	5
739.577	9
739.601	24
739.625	-4
739.649	7
739.673	-11
739.697	-4
739.721	-9
739.745	6
739.769	21
739.793	8
739.817	13
739.841	0
739.865	0
739.889	-1
739.912	-1
739.936	-5
739.96	6
739.984	7
740.008	7
740.032	6
740.056	-6
740.08	-5
740.104	-6
740.127	9
740.151	19
740.175	12
740.199	2
740.223	41
740.247	23
740.271	14
740.295	1
740.318	-12
740.342	-1
740.366	17
740.39	22
740.414	7
740.438	6
740.461	4
740.485	17
740.509	-5
740.533	0
740.557	-2
740.581	-1
740.604	-30
740.628	-1
740.652	3
740.676	-4
740.7	1
740.723	1
740.747	-16
740.771	-15
740.795	-15
740.819	8
740.842	10
740.866	14
740.89	6
740.914	-7
740.938	-13
740.961	4
740.985	-5
741.009	-3
741.033	13
741.056	8
741.08	5
741.104	3
741.128	5
741.151	12
741.175	6
741.199	15
741.223	8
741.246	-9
741.27	-5
741.294	-6
741.318	-18
741.341	7
741.365	-6
741.389	-5
741.413	4
741.436	6
741.46	8
741.484	8
741.507	-8
741.531	17
741.555	14
741.579	0
741.602	8
741.626	17
741.65	3
741.673	5
741.697	0
741.721	13
741.744	-6
741.768	-2
741.792	-2
741.815	6
741.839	5
741.863	5
741.886	13
741.91	7
741.934	12
741.957	-7
741.981	-3
742.005	2
742.028	-8
742.052	-3
742.075	17
742.099	14
742.123	-3
742.146	5
742.17	7
742.194	-13
742.217	-8
742.241	-5
742.264	2
742.288	11
742.312	-8
742.335	-3
742.359	2
742.382	10
742.406	21
742.43	-9
742.453	11
742.477	8
742.5	2
742.524	-4
742.548	5
742.571	0
742.595	21
742.618	0
742.642	4
742.665	9
742.689	-17
742.712	7
742.736	5
742.76	1
742.783	1
742.807	5
742.83	17
742.854	-5
742.877	-6
742.901	9
742.924	-7
742.948	21
742.971	23
742.995	5
743.018	-6
743.042	-19
743.065	-4
743.089	-3
743.112	5
743.136	-21
743.159	10
743.183	0
743.206	3
743.23	-20
743.253	5
743.277	3
743.3	-2
743.324	0
743.347	-7
743.371	15
743.394	3
743.418	12
743.441	6
743.465	5
743.488	-2
743.512	0
743.535	1
743.558	14
743.582	1
743.605	-4
743.629	16
743.652	7
743.676	9
743.699	12
743.723	-3
743.746	10
743.769	-12
743.793	10
743.816	-4
743.84	15
743.863	-10
743.886	-3
743.91	7
743.933	12
743.957	4
743.98	4
744.003	0
744.027	-1
744.05	1
744.074	2
744.097	-10
744.12	8
744.144	-3
744.167	3
744.19	-2
744.214	8
744.237	-6
744.26	5
744.284	3
744.307	-9
744.331	-4
744.354	0
744.377	1
744.401	0
744.424	5
744.447	-14
744.471	-9
