Data from LowRes_H2_15_26_11_07_2024_HR4C61881__21__15-28-15-737.txt Node

Date: Thu Nov 07 15:28:15 EST 2024
User: crc00042
Spectrometer: HR4C6188
Trigger mode: 4
Integration Time (sec): 1.000000E-1
Scans to average: 1
Electric dark correction enabled: true
Nonlinearity correction enabled: false
Boxcar width: 0
XAxis mode: Wavelengths
Number of Pixels in Spectrum: 3648
>>>>>Begin Spectral Data<<<<<
245.66	-112
245.797	-112
245.934	-112
246.071	-80
246.208	11
246.344	4
246.481	-21
246.618	6
246.755	3
246.892	0
247.029	-15
247.165	-9
247.302	18
247.439	-11
247.576	12
247.713	-16
247.849	29
247.986	0
248.123	1
248.26	8
248.396	18
248.533	6
248.67	-9
248.806	4
248.943	-4
249.08	-3
249.216	28
249.353	-6
249.49	-6
249.626	0
249.763	-2
249.9	2
250.036	9
250.173	17
250.309	4
250.446	10
250.582	10
250.719	-1
250.856	-11
250.992	-6
251.129	6
251.265	-13
251.402	1
251.538	20
251.675	-12
251.811	7
251.948	21
252.084	-3
252.221	-13
252.357	-6
252.493	12
252.63	-9
252.766	19
252.903	-8
253.039	-21
253.175	-5
253.312	15
253.448	2
253.585	-17
253.721	-1
253.857	8
253.994	20
254.13	3
254.266	-15
254.403	3
254.539	14
254.675	14
254.811	19
254.948	-2
255.084	7
255.22	-11
255.356	-6
255.493	7
255.629	5
255.765	11
255.901	28
256.037	2
256.174	31
256.31	-5
256.446	-17
256.582	-1
256.718	1
256.854	9
256.991	14
257.127	32
257.263	8
257.399	1
257.535	-8
257.671	-11
257.807	0
257.943	-11
258.079	-10
258.215	1
258.351	29
258.487	8
258.623	21
258.759	12
258.895	9
259.031	7
259.167	-17
259.303	41
259.439	5
259.575	-1
259.711	-3
259.847	-1
259.983	3
260.119	-13
260.255	-18
260.391	9
260.527	8
260.663	22
260.799	9
260.934	2
261.07	18
261.206	-14
261.342	-9
261.478	28
261.614	16
261.749	10
261.885	5
262.021	-3
262.157	7
262.293	5
262.428	10
262.564	7
262.7	16
262.836	16
262.971	12
263.107	20
263.243	28
263.378	12
263.514	-6
263.65	6
263.785	-12
263.921	2
264.057	6
264.192	-5
264.328	19
264.464	4
264.599	4
264.735	8
264.871	7
265.006	18
265.142	5
265.277	16
265.413	27
265.548	7
265.684	20
265.819	9
265.955	-4
266.091	-15
266.226	-8
266.362	5
266.497	12
266.633	-17
266.768	0
266.903	19
267.039	19
267.174	31
267.31	-10
267.445	0
267.581	0
267.716	20
267.851	13
267.987	3
268.122	24
268.258	7
268.393	4
268.528	18
268.664	0
268.799	-4
268.934	20
269.07	10
269.205	15
269.34	33
269.476	-8
269.611	-9
269.746	20
269.881	3
270.017	10
270.152	-1
270.287	22
270.422	22
270.558	-10
270.693	12
270.828	5
270.963	-10
271.098	-14
271.234	-3
271.369	12
271.504	-3
271.639	-5
271.774	7
271.909	3
272.045	-24
272.18	6
272.315	9
272.45	16
272.585	10
272.72	0
272.855	-1
272.99	33
273.125	4
273.26	-18
273.395	-8
273.53	-21
273.665	16
273.8	15
273.935	10
274.07	-1
274.205	18
274.34	-21
274.475	-8
274.61	20
274.745	-3
274.88	10
275.015	-5
275.15	22
275.285	19
275.42	-2
275.555	20
275.69	2
275.825	8
275.959	19
276.094	11
276.229	-1
276.364	-9
276.499	-12
276.634	3
276.768	6
276.903	4
277.038	9
277.173	8
277.308	-12
277.442	-2
277.577	-19
277.712	-6
277.847	0
277.981	-1
278.116	-18
278.251	15
278.386	2
278.52	9
278.655	10
278.79	30
278.924	19
279.059	16
279.194	-7
279.328	15
279.463	6
279.598	28
279.732	14
279.867	-2
280.001	12
280.136	10
280.271	-3
280.405	14
280.54	5
280.674	-10
280.809	30
280.943	7
281.078	2
281.213	16
281.347	3
281.482	14
281.616	11
281.751	13
281.885	-2
282.02	-1
282.154	11
282.288	-29
282.423	-1
282.557	-7
282.692	16
282.826	-1
282.961	9
283.095	10
283.229	20
283.364	-6
283.498	14
283.633	8
283.767	2
283.901	-1
284.036	-1
284.17	2
284.304	-15
284.439	-6
284.573	11
284.707	12
284.842	-4
284.976	-7
285.11	-22
285.244	2
285.379	35
285.513	-6
285.647	7
285.781	-12
285.916	26
286.05	-6
286.184	19
286.318	21
286.453	-12
286.587	-4
286.721	2
286.855	15
286.989	23
287.123	8
287.258	-10
287.392	-10
287.526	10
287.66	-1
287.794	14
287.928	4
288.062	13
288.196	-21
288.33	-9
288.464	16
288.598	10
288.733	19
288.867	21
289.001	11
289.135	5
289.269	9
289.403	12
289.537	2
289.671	-3
289.805	2
289.939	4
290.073	25
290.207	-10
290.34	1
290.474	13
290.608	23
290.742	-4
290.876	4
291.01	-5
291.144	34
291.278	-4
291.412	15
291.546	12
291.679	12
291.813	6
291.947	7
292.081	-20
292.215	11
292.349	19
292.482	35
292.616	-9
292.75	6
292.884	6
293.018	-11
293.151	-23
293.285	17
293.419	4
293.553	-7
293.686	-18
293.82	7
293.954	26
294.088	22
294.221	1
294.355	1
294.489	-4
294.622	-3
294.756	-5
294.89	6
295.023	11
295.157	2
295.291	3
295.424	-2
295.558	12
295.691	17
295.825	14
295.959	11
296.092	-10
296.226	-6
296.359	16
296.493	13
296.627	9
296.76	-6
296.894	7
297.027	-5
297.161	-1
297.294	-1
297.428	3
297.561	13
297.695	0
297.828	-6
297.962	-9
298.095	-13
298.229	-4
298.362	-12
298.495	4
298.629	-4
298.762	11
298.896	-4
299.029	-1
299.162	26
299.296	4
299.429	5
299.563	25
299.696	5
299.829	17
299.963	24
300.096	12
300.229	12
300.363	19
300.496	12
300.629	-27
300.763	-12
300.896	-12
301.029	20
301.162	7
301.296	12
301.429	15
301.562	-9
301.695	3
301.829	18
301.962	32
302.095	-3
302.228	-10
302.362	-5
302.495	-18
302.628	11
302.761	14
302.894	11
303.027	17
303.161	-4
303.294	-18
303.427	9
303.56	4
303.693	6
303.826	5
303.959	-16
304.092	7
304.225	-5
304.359	24
304.492	3
304.625	-11
304.758	12
304.891	-13
305.024	-7
305.157	-10
305.29	-13
305.423	-16
305.556	18
305.689	28
305.822	16
305.955	-1
306.088	7
306.221	14
306.354	11
306.487	-11
306.62	-6
306.752	6
306.885	18
307.018	6
307.151	7
307.284	8
307.417	-9
307.55	27
307.683	-11
307.816	20
307.948	16
308.081	16
308.214	11
308.347	31
308.48	-7
308.613	13
308.745	1
308.878	11
309.011	-18
309.144	15
309.277	0
309.409	32
309.542	3
309.675	33
309.808	14
309.94	33
310.073	-8
310.206	-1
310.339	6
310.471	-15
310.604	2
310.737	-1
310.869	7
311.002	10
311.135	-5
311.267	-14
311.4	0
311.533	36
311.665	-5
311.798	4
311.93	26
312.063	25
312.196	-7
312.328	-3
312.461	-18
312.593	13
312.726	21
312.859	8
312.991	14
313.124	-7
313.256	1
313.389	9
313.521	-5
313.654	3
313.786	-24
313.919	-8
314.051	4
314.184	31
314.316	12
314.449	-8
314.581	-6
314.714	1
314.846	1
314.978	-25
315.111	-3
315.243	20
315.376	12
315.508	12
315.641	13
315.773	23
315.905	12
316.038	9
316.17	24
316.302	2
316.435	3
316.567	4
316.699	30
316.832	-7
316.964	-6
317.096	6
317.229	-8
317.361	-17
317.493	-4
317.625	-19
317.758	9
317.89	20
318.022	1
318.155	3
318.287	9
318.419	19
318.551	10
318.683	-8
318.816	-7
318.948	-3
319.08	12
319.212	15
319.344	8
319.477	12
319.609	26
319.741	4
319.873	3
320.005	-5
320.137	12
320.269	22
320.401	6
320.534	12
320.666	-9
320.798	2
320.93	1
321.062	-12
321.194	-10
321.326	13
321.458	4
321.59	0
321.722	-10
321.854	15
321.986	5
322.118	1
322.25	4
322.382	16
322.514	-11
322.646	4
322.778	10
322.91	-1
323.042	13
323.174	12
323.306	-8
323.438	-17
323.57	10
323.702	11
323.834	4
323.966	-5
324.097	-5
324.229	16
324.361	-1
324.493	-10
324.625	-15
324.757	9
324.889	20
325.021	11
325.152	4
325.284	16
325.416	-18
325.548	16
325.68	3
325.811	7
325.943	18
326.075	2
326.207	-9
326.339	7
326.47	-4
326.602	13
326.734	4
326.866	14
326.997	-16
327.129	5
327.261	-22
327.392	-11
327.524	8
327.656	-7
327.787	1
327.919	8
328.051	-2
328.182	21
328.314	15
328.446	6
328.577	3
328.709	4
328.841	0
328.972	-6
329.104	3
329.235	7
329.367	5
329.499	-10
329.63	23
329.762	20
329.893	10
330.025	10
330.156	-24
330.288	12
330.419	19
330.551	3
330.683	-4
330.814	8
330.946	23
331.077	-4
331.208	-6
331.34	-13
331.471	2
331.603	-1
331.734	-6
331.866	2
331.997	14
332.129	-5
332.26	6
332.392	25
332.523	18
332.654	-4
332.786	-11
332.917	-5
333.048	8
333.18	27
333.311	0
333.443	1
333.574	8
333.705	23
333.837	-18
333.968	-7
334.099	18
334.231	32
334.362	2
334.493	22
334.624	24
334.756	-3
334.887	4
335.018	17
335.15	21
335.281	-3
335.412	29
335.543	-7
335.675	4
335.806	-6
335.937	1
336.068	-12
336.199	26
336.331	-3
336.462	5
336.593	6
336.724	-12
336.855	-1
336.986	13
337.118	10
337.249	8
337.38	4
337.511	-1
337.642	-6
337.773	0
337.904	16
338.035	4
338.166	-2
338.298	22
338.429	-7
338.56	-1
338.691	31
338.822	24
338.953	14
339.084	2
339.215	23
339.346	7
339.477	-5
339.608	7
339.739	-4
339.87	10
340.001	6
340.132	16
340.263	0
340.394	11
340.525	25
340.656	-6
340.787	-4
340.918	19
341.049	2
341.179	5
341.31	20
341.441	9
341.572	0
341.703	1
341.834	2
341.965	12
342.096	1
342.227	11
342.357	4
342.488	23
342.619	6
342.75	3
342.881	-16
343.012	18
343.142	19
343.273	-4
343.404	7
343.535	26
343.666	16
343.796	22
343.927	5
344.058	28
344.189	13
344.319	11
344.45	19
344.581	-5
344.712	-36
344.842	23
344.973	12
345.104	5
345.234	-1
345.365	2
345.496	-5
345.626	2
345.757	14
345.888	-5
346.018	29
346.149	5
346.28	23
346.41	15
346.541	36
346.672	-2
346.802	1
346.933	3
347.063	4
347.194	10
347.325	13
347.455	17
347.586	17
347.716	2
347.847	4
347.977	7
348.108	14
348.238	36
348.369	-4
348.499	-1
348.63	26
348.76	4
348.891	-1
349.021	33
349.152	6
349.282	6
349.413	-11
349.543	27
349.674	6
349.804	7
349.935	-7
350.065	-16
350.196	-9
350.326	11
350.456	13
350.587	32
350.717	10
350.848	20
350.978	30
351.108	-13
351.239	21
351.369	5
351.499	12
351.63	-4
351.76	-5
351.89	10
352.021	-2
352.151	-21
352.281	-19
352.412	17
352.542	-3
352.672	-5
352.803	-5
352.933	-8
353.063	9
353.193	2
353.324	1
353.454	17
353.584	9
353.714	3
353.845	3
353.975	-1
354.105	-4
354.235	9
354.365	-1
354.496	-1
354.626	13
354.756	13
354.886	8
355.016	27
355.146	14
355.277	17
355.407	14
355.537	5
355.667	10
355.797	3
355.927	0
356.057	17
356.187	9
356.318	-2
356.448	1
356.578	23
356.708	28
356.838	11
356.968	16
357.098	-2
357.228	6
357.358	2
357.488	-18
357.618	32
357.748	17
357.878	28
358.008	18
358.138	-3
358.268	-14
358.398	32
358.528	-16
358.658	15
358.788	-2
358.918	44
359.048	23
359.178	13
359.308	27
359.438	14
359.568	9
359.698	24
359.827	11
359.957	4
360.087	34
360.217	8
360.347	22
360.477	11
360.607	7
360.737	13
360.866	-19
360.996	-12
361.126	1
361.256	21
361.386	26
361.516	29
361.645	2
361.775	18
361.905	-7
362.035	14
362.165	6
362.294	12
362.424	12
362.554	21
362.684	-3
362.813	10
362.943	9
363.073	-5
363.203	-4
363.332	0
363.462	3
363.592	0
363.721	-2
363.851	-8
363.981	6
364.111	7
364.24	-13
364.37	22
364.5	37
364.629	18
364.759	9
364.888	-13
365.018	18
365.148	6
365.277	14
365.407	25
365.537	10
365.666	15
365.796	19
365.925	0
366.055	4
366.184	3
366.314	2
366.444	24
366.573	4
366.703	-1
366.832	32
366.962	21
367.091	25
367.221	14
367.35	5
367.48	41
367.609	26
367.739	23
367.868	10
367.998	21
368.127	13
368.257	12
368.386	26
368.516	11
368.645	9
368.775	4
368.904	22
369.033	2
369.163	5
369.292	4
369.422	-3
369.551	12
369.68	22
369.81	-2
369.939	4
370.069	28
370.198	19
370.327	8
370.457	17
370.586	12
370.715	4
370.845	3
370.974	8
371.103	7
371.233	16
371.362	17
371.491	7
371.621	16
371.75	15
371.879	13
372.008	-6
372.138	0
372.267	17
372.396	-3
372.525	5
372.655	9
372.784	-1
372.913	22
373.042	4
373.172	9
373.301	-8
373.43	-19
373.559	3
373.688	7
373.818	38
373.947	29
374.076	16
374.205	9
374.334	14
374.463	-8
374.593	-9
374.722	4
374.851	41
374.98	-5
375.109	7
375.238	24
375.367	32
375.496	-17
375.625	-10
375.755	17
375.884	23
376.013	23
376.142	3
376.271	7
376.4	-2
376.529	-4
376.658	22
376.787	11
376.916	7
377.045	10
377.174	-2
377.303	3
377.432	22
377.561	21
377.69	10
377.819	41
377.948	0
378.077	-8
378.206	-22
378.335	4
378.464	16
378.593	17
378.722	-7
378.851	-9
378.98	31
379.108	-8
379.237	-13
379.366	10
379.495	20
379.624	2
379.753	10
379.882	-5
380.011	4
380.14	1
380.268	3
380.397	-14
380.526	16
380.655	-11
380.784	-17
380.913	-10
381.041	12
381.17	11
381.299	-4
381.428	11
381.557	15
381.685	-1
381.814	17
381.943	8
382.072	-5
382.2	-11
382.329	-8
382.458	13
382.587	23
382.715	33
382.844	4
382.973	4
383.102	7
383.23	-7
383.359	-12
383.488	1
383.616	3
383.745	-8
383.874	7
384.003	-1
384.131	6
384.26	0
384.389	5
384.517	-10
384.646	-23
384.774	-4
384.903	9
385.032	25
385.16	-2
385.289	8
385.418	-9
385.546	2
385.675	24
385.803	31
385.932	27
386.06	-9
386.189	30
386.318	18
386.446	-2
386.575	15
386.703	14
386.832	-6
386.96	0
387.089	31
387.217	22
387.346	-13
387.474	-14
387.603	8
387.731	18
387.86	13
387.988	11
388.117	21
388.245	19
388.374	4
388.502	14
388.631	-22
388.759	3
388.888	2
389.016	-1
389.144	1
389.273	10
389.401	-10
389.53	-2
389.658	6
389.786	-3
389.915	-10
390.043	4
390.172	6
390.3	20
390.428	9
390.557	6
390.685	19
390.813	-3
390.942	3
391.07	-6
391.198	4
391.327	-7
391.455	-12
391.583	25
391.712	8
391.84	16
391.968	-4
392.096	-2
392.225	19
392.353	18
392.481	8
392.609	6
392.738	11
392.866	18
392.994	0
393.122	13
393.251	7
393.379	-6
393.507	-14
393.635	1
393.764	-6
393.892	18
394.02	-6
394.148	8
394.276	10
394.404	27
394.533	1
394.661	7
394.789	38
394.917	26
395.045	6
395.173	-11
395.302	-5
395.43	-1
395.558	10
395.686	29
395.814	20
395.942	-5
396.07	9
396.198	22
396.326	12
396.454	25
396.582	15
396.711	3
396.839	17
396.967	14
397.095	14
397.223	28
397.351	19
397.479	9
397.607	-7
397.735	24
397.863	8
397.991	19
398.119	-14
398.247	-25
398.375	-7
398.503	0
398.631	-2
398.759	19
398.887	3
399.015	0
399.143	7
399.271	27
399.399	16
399.526	23
399.654	23
399.782	-7
399.91	3
400.038	24
400.166	8
400.294	3
400.422	3
400.55	18
400.678	12
400.805	8
400.933	16
401.061	25
401.189	-6
401.317	23
401.445	42
401.573	19
401.7	2
401.828	4
401.956	8
402.084	5
402.212	11
402.34	12
402.467	9
402.595	14
402.723	16
402.851	28
402.978	3
403.106	19
403.234	6
403.362	23
403.489	23
403.617	13
403.745	5
403.873	14
404	16
404.128	5
404.256	3
404.384	16
404.511	33
404.639	-2
404.767	3
404.894	10
405.022	19
405.15	27
405.277	7
405.405	7
405.533	2
405.66	-2
405.788	-14
405.916	-7
406.043	4
406.171	20
406.299	14
406.426	20
406.554	20
406.681	26
406.809	9
406.937	8
407.064	8
407.192	18
407.319	1
407.447	-9
407.574	30
407.702	22
407.83	-15
407.957	-15
408.085	1
408.212	8
408.34	9
408.467	2
408.595	6
408.722	26
408.85	22
408.977	-5
409.105	6
409.232	22
409.36	8
409.487	-5
409.615	8
409.742	24
409.87	24
409.997	34
410.125	44
410.252	56
410.379	52
410.507	52
410.634	22
410.762	12
410.889	12
411.017	-1
411.144	24
411.271	-1
411.399	-10
411.526	3
411.653	13
411.781	32
411.908	32
412.036	8
412.163	28
412.29	8
412.418	13
412.545	19
412.672	1
412.8	22
412.927	26
413.054	29
413.182	18
413.309	29
413.436	11
413.564	-3
413.691	8
413.818	38
413.945	-1
414.073	6
414.2	21
414.327	24
414.454	12
414.582	27
414.709	-15
414.836	7
414.963	-4
415.091	17
415.218	-1
415.345	5
415.472	16
415.6	-1
415.727	3
415.854	7
415.981	7
416.108	-13
416.236	28
416.363	23
416.49	1
416.617	10
416.744	27
416.871	14
416.998	5
417.126	2
417.253	3
417.38	3
417.507	-6
417.634	16
417.761	29
417.888	21
418.015	-9
418.143	27
418.27	39
418.397	12
418.524	10
418.651	9
418.778	12
418.905	35
419.032	41
419.159	25
419.286	22
419.413	16
419.54	26
419.667	3
419.794	-1
419.921	3
420.048	10
420.175	4
420.302	-11
420.429	2
420.556	15
420.683	-2
420.81	10
420.937	14
421.064	15
421.191	13
421.318	33
421.445	25
421.572	5
421.699	24
421.826	26
421.953	4
422.08	24
422.207	9
422.334	3
422.461	35
422.588	6
422.714	8
422.841	37
422.968	19
423.095	10
423.222	-3
423.349	-1
423.476	23
423.603	-5
423.729	-11
423.856	6
423.983	7
424.11	-9
424.237	11
424.364	1
424.491	2
424.617	-3
424.744	8
424.871	32
424.998	12
425.125	5
425.251	15
425.378	2
425.505	26
425.632	10
425.758	-12
425.885	24
426.012	25
426.139	20
426.266	7
426.392	23
426.519	10
426.646	8
426.772	32
426.899	18
427.026	10
427.153	9
427.279	36
427.406	15
427.533	7
427.659	8
427.786	9
427.913	26
428.039	-1
428.166	5
428.293	-8
428.419	9
428.546	1
428.673	1
428.799	6
428.926	18
429.053	16
429.179	15
429.306	13
429.433	21
429.559	-2
429.686	-6
429.812	10
429.939	4
430.066	26
430.192	4
430.319	12
430.445	4
430.572	-1
430.699	-4
430.825	-14
430.952	11
431.078	15
431.205	26
431.331	0
431.458	-2
431.584	13
431.711	12
431.837	17
431.964	-2
432.09	22
432.217	0
432.343	20
432.47	30
432.596	10
432.723	3
432.849	16
432.976	5
433.102	21
433.229	-6
433.355	36
433.482	74
433.608	151
433.735	135
433.861	123
433.987	156
434.114	209
434.24	184
434.367	82
434.493	-8
434.62	16
434.746	34
434.872	17
434.999	13
435.125	3
435.252	9
435.378	22
435.504	0
435.631	29
435.757	-1
435.883	30
436.01	0
436.136	14
436.262	20
436.389	16
436.515	12
436.641	16
436.768	5
436.894	13
437.02	10
437.147	25
437.273	3
437.399	0
437.526	16
437.652	6
437.778	31
437.904	10
438.031	-1
438.157	27
438.283	13
438.409	11
438.536	12
438.662	45
438.788	21
438.914	7
439.041	11
439.167	31
439.293	-3
439.419	29
439.546	16
439.672	8
439.798	11
439.924	17
440.05	17
440.177	14
440.303	7
440.429	5
440.555	24
440.681	-10
440.807	18
440.934	2
441.06	21
441.186	20
441.312	8
441.438	27
441.564	28
441.69	22
441.816	18
441.943	16
442.069	27
442.195	19
442.321	26
442.447	11
442.573	16
442.699	3
442.825	-11
442.951	4
443.077	6
443.203	26
443.33	9
443.456	4
443.582	22
443.708	-1
443.834	15
443.96	16
444.086	3
444.212	24
444.338	16
444.464	22
444.59	13
444.716	22
444.842	-1
444.968	-3
445.094	5
445.22	-5
445.346	-2
445.472	-1
445.598	9
445.724	8
445.85	13
445.976	19
446.102	17
446.228	22
446.354	14
446.48	2
446.605	10
446.731	24
446.857	20
446.983	15
447.109	29
447.235	16
447.361	-10
447.487	29
447.613	20
447.739	4
447.865	12
447.99	29
448.116	23
448.242	24
448.368	16
448.494	6
448.62	8
448.746	15
448.872	0
448.997	-7
449.123	5
449.249	33
449.375	45
449.501	6
449.627	-2
449.752	42
449.878	20
450.004	-20
450.13	6
450.256	0
450.381	-8
450.507	15
450.633	15
450.759	39
450.884	8
451.01	23
451.136	4
451.262	4
451.388	10
451.513	12
451.639	11
451.765	18
451.89	22
452.016	26
452.142	20
452.268	-1
452.393	20
452.519	1
452.645	9
452.771	18
452.896	6
453.022	6
453.148	12
453.273	19
453.399	5
453.525	-8
453.65	2
453.776	32
453.902	19
454.027	28
454.153	34
454.279	16
454.404	7
454.53	21
454.656	47
454.781	12
454.907	4
455.032	18
455.158	25
455.284	19
455.409	12
455.535	30
455.66	20
455.786	46
455.912	23
456.037	14
456.163	16
456.288	21
456.414	-8
456.539	-8
456.665	13
456.791	28
456.916	0
457.042	17
457.167	20
457.293	13
457.418	19
457.544	-2
457.669	10
457.795	10
457.92	13
458.046	27
458.171	22
458.297	10
458.422	-14
458.548	8
458.673	25
458.799	3
458.924	6
459.05	4
459.175	18
459.301	31
459.426	18
459.552	0
459.677	10
459.803	35
459.928	22
460.053	14
460.179	13
460.304	19
460.43	0
460.555	-1
460.681	-8
460.806	10
460.931	18
461.057	14
461.182	-1
461.308	27
461.433	29
461.558	-2
461.684	28
461.809	26
461.934	7
462.06	7
462.185	1
462.311	12
462.436	17
462.561	10
462.687	15
462.812	37
462.937	7
463.063	7
463.188	5
463.313	25
463.439	16
463.564	4
463.689	9
463.814	20
463.94	0
464.065	3
464.19	10
464.316	-4
464.441	-3
464.566	17
464.692	14
464.817	16
464.942	7
465.067	10
465.193	-5
465.318	-12
465.443	-2
465.568	10
465.694	10
465.819	15
465.944	20
466.069	3
466.194	20
466.32	31
466.445	-6
466.57	-1
466.695	3
466.82	24
466.946	21
467.071	16
467.196	-14
467.321	15
467.446	11
467.572	13
467.697	-5
467.822	14
467.947	20
468.072	2
468.197	-9
468.323	-17
468.448	15
468.573	15
468.698	22
468.823	36
468.948	28
469.073	31
469.198	25
469.324	30
469.449	-11
469.574	14
469.699	13
469.824	26
469.949	7
470.074	41
470.199	57
470.324	40
470.449	32
470.574	18
470.7	-7
470.825	36
470.95	38
471.075	10
471.2	19
471.325	35
471.45	2
471.575	8
471.7	9
471.825	1
471.95	-1
472.075	2
472.2	8
472.325	14
472.45	-9
472.575	-5
472.7	-3
472.825	11
472.95	22
473.075	13
473.2	6
473.325	5
473.45	10
473.575	6
473.7	9
473.825	16
473.95	4
474.075	17
474.2	-2
474.325	1
474.45	21
474.574	18
474.699	20
474.824	18
474.949	5
475.074	11
475.199	38
475.324	5
475.449	1
475.574	19
475.699	21
475.824	20
475.949	19
476.073	19
476.198	3
476.323	4
476.448	14
476.573	5
476.698	15
476.823	26
476.947	33
477.072	19
477.197	-1
477.322	-1
477.447	3
477.572	9
477.697	3
477.821	12
477.946	24
478.071	42
478.196	24
478.321	17
478.445	9
478.57	5
478.695	-5
478.82	22
478.945	24
479.069	5
479.194	-3
479.319	9
479.444	11
479.569	5
479.693	25
479.818	24
479.943	32
480.068	21
480.192	22
480.317	11
480.442	11
480.567	14
480.691	28
480.816	18
480.941	6
481.066	12
481.19	18
481.315	12
481.44	21
481.564	6
481.689	47
481.814	30
481.938	24
482.063	15
482.188	17
482.313	24
482.437	15
482.562	26
482.687	23
482.811	33
482.936	20
483.061	25
483.185	8
483.31	24
483.435	36
483.559	20
483.684	7
483.808	22
483.933	24
484.058	10
484.182	32
484.307	23
484.432	15
484.556	29
484.681	2
484.805	29
484.93	34
485.055	51
485.179	91
485.304	125
485.428	357
485.553	1238
485.678	1736
485.802	1632
485.927	1799
486.051	2639
486.176	1591
486.3	426
486.425	152
486.549	79
486.674	67
486.799	58
486.923	31
487.048	21
487.172	16
487.297	33
487.421	31
487.546	16
487.67	28
487.795	17
487.919	12
488.044	37
488.168	39
488.293	21
488.417	10
488.542	32
488.666	32
488.791	31
488.915	34
489.04	21
489.164	43
489.289	45
489.413	-1
489.538	16
489.662	29
489.786	11
489.911	5
490.035	18
490.16	2
490.284	-4
490.409	-6
490.533	9
490.658	40
490.782	23
490.906	14
491.031	19
491.155	20
491.28	19
491.404	13
491.528	37
491.653	16
491.777	44
491.902	16
492.026	25
492.15	30
492.275	36
492.399	26
492.524	3
492.648	31
492.772	23
492.897	32
493.021	16
493.145	27
493.27	21
493.394	5
493.518	21
493.643	-2
493.767	18
493.891	13
494.016	35
494.14	28
494.264	6
494.389	25
494.513	3
494.637	11
494.762	22
494.886	18
495.01	9
495.134	10
495.259	19
495.383	31
495.507	13
495.632	35
495.756	55
495.88	13
496.004	13
496.129	17
496.253	23
496.377	10
496.501	25
496.626	-1
496.75	32
496.874	-3
496.998	5
497.123	31
497.247	-4
497.371	-4
497.495	10
497.62	18
497.744	15
497.868	17
497.992	22
498.116	7
498.241	10
498.365	1
498.489	-4
498.613	13
498.737	11
498.862	4
498.986	-1
499.11	22
499.234	24
499.358	-1
499.482	4
499.607	19
499.731	9
499.855	23
499.979	-2
500.103	19
500.227	50
500.351	19
500.476	8
500.6	-4
500.724	7
500.848	10
500.972	42
501.096	21
501.22	42
501.344	17
501.469	22
501.593	21
501.717	15
501.841	24
501.965	12
502.089	17
502.213	17
502.337	1
502.461	-8
502.585	6
502.709	31
502.834	-10
502.958	16
503.082	10
503.206	15
503.33	18
503.454	14
503.578	25
503.702	38
503.826	16
503.95	39
504.074	4
504.198	8
504.322	9
504.446	18
504.57	16
504.694	31
504.818	31
504.942	29
505.066	18
505.19	8
505.314	15
505.438	28
505.562	23
505.686	25
505.81	-6
505.934	18
506.058	2
506.182	20
506.306	14
506.43	17
506.554	10
506.678	32
506.802	13
506.926	16
507.05	14
507.174	23
507.298	23
507.422	28
507.546	30
507.67	19
507.794	12
507.918	14
508.042	2
508.165	-10
508.289	-2
508.413	8
508.537	15
508.661	36
508.785	19
508.909	11
509.033	8
509.157	5
509.281	19
509.405	12
509.528	36
509.652	28
509.776	6
509.9	8
510.024	1
510.148	9
510.272	6
510.396	28
510.519	8
510.643	32
510.767	23
510.891	11
511.015	12
511.139	20
511.263	28
511.386	2
511.51	25
511.634	8
511.758	20
511.882	15
512.006	10
512.129	15
512.253	40
512.377	16
512.501	15
512.625	9
512.748	6
512.872	9
512.996	4
513.12	6
513.244	2
513.367	13
513.491	9
513.615	15
513.739	11
513.862	9
513.986	19
514.11	20
514.234	7
514.358	27
514.481	31
514.605	6
514.729	14
514.853	24
514.976	-4
515.1	8
515.224	20
515.348	29
515.471	19
515.595	27
515.719	23
515.842	43
515.966	2
516.09	28
516.214	8
516.337	42
516.461	35
516.585	32
516.708	32
516.832	18
516.956	10
517.08	14
517.203	3
517.327	20
517.451	29
517.574	40
517.698	18
517.822	24
517.945	9
518.069	34
518.193	46
518.316	29
518.44	39
518.564	19
518.687	25
518.811	46
518.935	54
519.058	18
519.182	24
519.306	38
519.429	28
519.553	66
519.676	26
519.8	13
519.924	13
520.047	16
520.171	4
520.294	5
520.418	7
520.542	30
520.665	37
520.789	25
520.913	20
521.036	-16
521.16	2
521.283	7
521.407	12
521.53	14
521.654	-20
521.778	36
521.901	19
522.025	20
522.148	4
522.272	22
522.395	3
522.519	37
522.643	0
522.766	21
522.89	12
523.013	30
523.137	11
523.26	14
523.384	24
523.507	18
523.631	11
523.754	10
523.878	4
524.002	22
524.125	10
524.249	-4
524.372	2
524.496	-7
524.619	11
524.743	12
524.866	10
524.99	4
525.113	-14
525.237	34
525.36	9
525.484	27
525.607	19
525.731	4
525.854	28
525.978	44
526.101	8
526.224	9
526.348	24
526.471	16
526.595	26
526.718	4
526.842	0
526.965	12
527.089	10
527.212	28
527.336	7
527.459	28
527.582	24
527.706	30
527.829	12
527.953	22
528.076	5
528.2	5
528.323	23
528.446	18
528.57	13
528.693	38
528.817	9
528.94	32
529.064	26
529.187	18
529.31	13
529.434	4
529.557	16
529.68	10
529.804	5
529.927	26
530.051	11
530.174	-4
530.297	-2
530.421	11
530.544	25
530.668	5
530.791	-11
530.914	16
531.038	11
531.161	0
531.284	12
531.408	38
531.531	12
531.654	9
531.778	13
531.901	-4
532.024	14
532.148	23
532.271	8
532.394	23
532.518	11
532.641	31
532.764	43
532.888	38
533.011	9
533.134	-14
533.258	26
533.381	10
533.504	6
533.628	4
533.751	22
533.874	-6
533.997	9
534.121	-27
534.244	8
534.367	18
534.491	12
534.614	7
534.737	22
534.86	21
534.984	12
535.107	10
535.23	13
535.354	10
535.477	-9
535.6	-1
535.723	19
535.847	21
535.97	-11
536.093	16
536.216	1
536.34	28
536.463	-8
536.586	14
536.709	11
536.833	33
536.956	8
537.079	2
537.202	16
537.325	12
537.449	5
537.572	26
537.695	-2
537.818	18
537.941	19
538.065	4
538.188	-4
538.311	30
538.434	15
538.558	28
538.681	12
538.804	-9
538.927	6
539.05	13
539.173	-13
539.297	9
539.42	19
539.543	21
539.666	19
539.789	25
539.913	9
540.036	22
540.159	10
540.282	14
540.405	-3
540.528	3
540.651	23
540.775	15
540.898	21
541.021	-5
541.144	4
541.267	22
541.39	-2
541.513	7
541.637	16
541.76	16
541.883	4
542.006	17
542.129	17
542.252	6
542.375	6
542.498	11
542.622	26
542.745	12
542.868	7
542.991	16
543.114	16
543.237	38
543.36	26
543.483	18
543.606	16
543.73	20
543.853	18
543.976	-5
544.099	7
544.222	12
544.345	-8
544.468	10
544.591	27
544.714	13
544.837	38
544.96	6
545.083	9
545.206	14
545.329	38
545.453	15
545.576	0
545.699	5
545.822	24
545.945	12
546.068	-5
546.191	-2
546.314	25
546.437	25
546.56	19
546.683	9
546.806	24
546.929	5
547.052	16
547.175	0
547.298	21
547.421	1
547.544	-4
547.667	21
547.79	8
547.913	-2
548.036	0
548.159	20
548.282	7
548.405	-4
548.528	30
548.651	28
548.774	23
548.897	25
549.02	34
549.143	47
549.266	20
549.389	26
549.512	14
549.635	30
549.758	34
549.881	13
550.004	22
550.127	7
550.25	13
550.373	-6
550.496	18
550.619	16
550.742	-2
550.865	-1
550.988	15
551.111	42
551.234	35
551.356	2
551.479	-5
551.602	4
551.725	24
551.848	38
551.971	34
552.094	11
552.217	9
552.34	21
552.463	-6
552.586	8
552.709	5
552.832	14
552.955	22
553.077	9
553.2	20
553.323	-8
553.446	10
553.569	7
553.692	14
553.815	17
553.938	18
554.061	14
554.184	11
554.306	25
554.429	8
554.552	20
554.675	-4
554.798	4
554.921	18
555.044	2
555.167	-13
555.29	12
555.412	11
555.535	18
555.658	19
555.781	20
555.904	18
556.027	34
556.15	12
556.272	16
556.395	30
556.518	3
556.641	11
556.764	19
556.887	5
557.01	-2
557.132	-16
557.255	4
557.378	31
557.501	21
557.624	13
557.747	-2
557.869	20
557.992	16
558.115	20
558.238	4
558.361	21
558.483	28
558.606	14
558.729	3
558.852	19
558.975	27
559.098	23
559.22	19
559.343	8
559.466	21
559.589	-2
559.712	21
559.834	14
559.957	9
560.08	15
560.203	25
560.325	23
560.448	30
560.571	2
560.694	6
560.817	24
560.939	-8
561.062	5
561.185	5
561.308	-1
561.43	-8
561.553	-13
561.676	9
561.799	22
561.921	17
562.044	2
562.167	-2
562.29	29
562.413	29
562.535	7
562.658	-15
562.781	4
562.903	14
563.026	15
563.149	51
563.272	33
563.394	27
563.517	9
563.64	8
563.763	13
563.885	6
564.008	44
564.131	21
564.254	-1
564.376	9
564.499	-14
564.622	4
564.744	8
564.867	22
564.99	8
565.113	10
565.235	0
565.358	7
565.481	-12
565.603	16
565.726	9
565.849	16
565.971	7
566.094	6
566.217	18
566.34	19
566.462	3
566.585	3
566.708	31
566.83	14
566.953	31
567.076	7
567.198	0
567.321	14
567.444	25
567.566	16
567.689	5
567.812	1
567.934	35
568.057	10
568.18	11
568.302	9
568.425	-7
568.548	16
568.67	9
568.793	3
568.916	22
569.038	16
569.161	23
569.283	14
569.406	4
569.529	13
569.651	-4
569.774	1
569.897	2
570.019	35
570.142	14
570.265	10
570.387	18
570.51	14
570.632	19
570.755	23
570.878	-7
571	18
571.123	5
571.246	18
571.368	3
571.491	15
571.613	6
571.736	-1
571.859	5
571.981	-8
572.104	-2
572.226	16
572.349	-2
572.472	7
572.594	20
572.717	16
572.839	-8
572.962	14
573.085	22
573.207	4
573.33	13
573.452	20
573.575	34
573.697	14
573.82	8
573.943	5
574.065	10
574.188	12
574.31	10
574.433	11
574.555	38
574.678	6
574.801	32
574.923	5
575.046	19
575.168	12
575.291	18
575.413	14
575.536	13
575.659	22
575.781	21
575.904	8
576.026	12
576.149	6
576.271	11
576.394	26
576.516	2
576.639	17
576.761	-5
576.884	-9
577.007	6
577.129	10
577.252	15
577.374	24
577.497	7
577.619	21
577.742	-6
577.864	23
577.987	8
578.109	24
578.232	17
578.354	39
578.477	-4
578.599	0
578.722	12
578.844	8
578.967	11
579.089	8
579.212	3
579.334	23
579.457	12
579.579	26
579.702	11
579.824	-11
579.947	-5
580.069	-1
580.192	-9
580.314	23
580.437	5
580.559	50
580.682	25
580.804	8
580.927	29
581.049	21
581.172	22
581.294	22
581.417	20
581.539	19
581.662	26
581.784	11
581.907	25
582.029	4
582.152	0
582.274	39
582.396	28
582.519	22
582.641	11
582.764	6
582.886	37
583.009	9
583.131	15
583.254	11
583.376	36
583.499	27
583.621	22
583.743	40
583.866	25
583.988	14
584.111	29
584.233	10
584.356	20
584.478	22
584.601	-9
584.723	7
584.845	33
584.968	2
585.09	2
585.213	9
585.335	2
585.458	1
585.58	1
585.702	19
585.825	17
585.947	6
586.07	9
586.192	1
586.315	14
586.437	-2
586.559	-8
586.682	-5
586.804	28
586.927	-1
587.049	15
587.171	23
587.294	20
587.416	25
587.539	19
587.661	7
587.783	8
587.906	2
588.028	4
588.151	8
588.273	35
588.395	12
588.518	9
588.64	14
588.763	31
588.885	12
589.007	20
589.13	-18
589.252	8
589.375	24
589.497	9
589.619	31
589.742	30
589.864	24
589.986	4
590.109	4
590.231	-9
590.354	10
590.476	-7
590.598	11
590.721	5
590.843	28
590.965	15
591.088	40
591.21	5
591.332	4
591.455	-6
591.577	23
591.7	22
591.822	16
591.944	-4
592.067	21
592.189	8
592.311	21
592.434	13
592.556	25
592.678	-4
592.801	13
592.923	20
593.045	16
593.168	28
593.29	16
593.412	12
593.535	-13
593.657	2
593.779	4
593.902	2
594.024	9
594.146	28
594.269	17
594.391	-6
594.513	34
594.636	14
594.758	13
594.88	29
595.003	23
595.125	24
595.247	13
595.37	9
595.492	14
595.614	28
595.737	11
595.859	3
595.981	19
596.104	19
596.226	0
596.348	3
596.471	22
596.593	19
596.715	7
596.838	8
596.96	-2
597.082	19
597.204	19
597.327	5
597.449	5
597.571	23
597.694	23
597.816	5
597.938	1
598.061	19
598.183	10
598.305	28
598.427	12
598.55	24
598.672	38
598.794	25
598.917	19
599.039	19
599.161	6
599.283	13
599.406	18
599.528	9
599.65	50
599.773	9
599.895	45
600.017	21
600.139	24
600.262	-10
600.384	20
600.506	15
600.628	30
600.751	35
600.873	10
600.995	23
601.118	40
601.24	10
601.362	37
601.484	19
601.607	29
601.729	7
601.851	18
601.973	2
602.096	21
602.218	27
602.34	24
602.462	29
602.585	9
602.707	8
602.829	28
602.951	24
603.074	8
603.196	10
603.318	22
603.44	20
603.563	6
603.685	-9
603.807	26
603.929	12
604.052	18
604.174	22
604.296	21
604.418	29
604.541	42
604.663	3
604.785	12
604.907	20
605.03	19
605.152	35
605.274	19
605.396	19
605.519	16
605.641	13
605.763	7
605.885	9
606.008	12
606.13	18
606.252	28
606.374	-13
606.496	-6
606.619	8
606.741	13
606.863	34
606.985	36
607.108	16
607.23	6
607.352	20
607.474	8
607.596	3
607.719	-2
607.841	27
607.963	15
608.085	-5
608.207	51
608.33	28
608.452	6
608.574	22
608.696	36
608.819	6
608.941	10
609.063	14
609.185	5
609.307	23
609.43	32
609.552	20
609.674	-4
609.796	19
609.918	27
610.041	8
610.163	14
610.285	35
610.407	35
610.529	6
610.652	17
610.774	13
610.896	13
611.018	13
611.14	3
611.263	2
611.385	18
611.507	9
611.629	-2
611.751	27
611.873	23
611.996	19
612.118	26
612.24	27
612.362	19
612.484	16
612.607	22
612.729	32
612.851	20
612.973	9
613.095	5
613.218	18
613.34	14
613.462	14
613.584	11
613.706	5
613.828	39
613.951	6
614.073	12
614.195	6
614.317	27
614.439	32
614.561	19
614.684	14
614.806	30
614.928	14
615.05	8
615.172	24
615.294	14
615.417	14
615.539	18
615.661	9
615.783	25
615.905	33
616.027	62
616.15	110
616.272	85
616.394	85
616.516	51
616.638	44
616.76	15
616.883	10
617.005	23
617.127	14
617.249	35
617.371	12
617.493	7
617.615	12
617.738	22
617.86	16
617.982	29
618.104	8
618.226	6
618.348	4
618.471	25
618.593	16
618.715	16
618.837	22
618.959	13
619.081	21
619.203	25
619.326	30
619.448	11
619.57	2
619.692	30
619.814	28
619.936	6
620.058	12
620.181	19
620.303	18
620.425	12
620.547	11
620.669	14
620.791	12
620.913	-8
621.036	-2
621.158	15
621.28	23
621.402	8
621.524	15
621.646	28
621.768	4
621.891	2
622.013	-6
622.135	7
622.257	6
622.379	1
622.501	2
622.623	9
622.745	4
622.868	16
622.99	20
623.112	9
623.234	15
623.356	24
623.478	15
623.6	24
623.722	8
623.845	36
623.967	3
624.089	24
624.211	6
624.333	31
624.455	17
624.577	8
624.699	31
624.822	10
624.944	12
625.066	14
625.188	-1
625.31	23
625.432	32
625.554	14
625.676	41
625.799	8
625.921	-10
626.043	15
626.165	22
626.287	-5
626.409	24
626.531	16
626.653	14
626.775	16
626.898	5
627.02	10
627.142	29
627.264	13
627.386	7
627.508	11
627.63	12
627.752	14
627.874	21
627.997	16
628.119	19
628.241	22
628.363	21
628.485	6
628.607	11
628.729	11
628.851	-14
628.973	24
629.096	-11
629.218	36
629.34	25
629.462	2
629.584	7
629.706	21
629.828	14
629.95	8
630.072	17
630.195	18
630.317	15
630.439	14
630.561	18
630.683	6
630.805	27
630.927	18
631.049	17
631.171	-2
631.293	17
631.416	22
631.538	-5
631.66	16
631.782	20
631.904	22
632.026	7
632.148	24
632.27	10
632.392	21
632.514	22
632.637	13
632.759	10
632.881	3
633.003	4
633.125	4
633.247	2
633.369	5
633.491	7
633.613	36
633.735	-1
633.858	17
633.98	13
634.102	2
634.224	2
634.346	11
634.468	19
634.59	38
634.712	8
634.834	30
634.956	11
635.078	-2
635.201	-3
635.323	12
635.445	0
635.567	5
635.689	33
635.811	12
635.933	11
636.055	19
636.177	-2
636.299	45
636.421	25
636.544	23
636.666	6
636.788	14
636.91	12
637.032	6
637.154	42
637.276	51
637.398	24
637.52	24
637.642	5
637.764	25
637.887	3
638.009	7
638.131	12
638.253	-11
638.375	13
638.497	23
638.619	2
638.741	4
638.863	-2
638.985	10
639.107	8
639.23	11
639.352	16
639.474	4
639.596	1
639.718	8
639.84	15
639.962	-2
640.084	11
640.206	23
640.328	-3
640.45	3
640.573	2
640.695	7
640.817	17
640.939	31
641.061	19
641.183	3
641.305	5
641.427	-4
641.549	3
641.671	10
641.793	20
641.915	35
642.038	14
642.16	10
642.282	-4
642.404	7
642.526	17
642.648	-4
642.77	6
642.892	12
643.014	18
643.136	30
643.258	-6
643.381	34
643.503	26
643.625	2
643.747	-9
643.869	20
643.991	19
644.113	19
644.235	2
644.357	13
644.479	11
644.601	-4
644.723	-1
644.846	29
644.968	6
645.09	12
645.212	2
645.334	26
645.456	18
645.578	24
645.7	6
645.822	26
645.944	7
646.066	10
646.188	6
646.311	29
646.433	9
646.555	52
646.677	40
646.799	27
646.921	26
647.043	25
647.165	11
647.287	15
647.409	7
647.531	36
647.654	-4
647.776	14
647.898	31
648.02	17
648.142	13
648.264	7
648.386	5
648.508	9
648.63	12
648.752	14
648.874	18
648.997	19
649.119	22
649.241	29
649.363	14
649.485	11
649.607	6
649.729	2
649.851	2
649.973	3
650.095	4
650.217	11
650.34	14
650.462	5
650.584	5
650.706	28
650.828	23
650.95	-9
651.072	9
651.194	7
651.316	8
651.438	6
651.56	2
651.683	3
651.805	4
651.927	14
652.049	13
652.171	13
652.293	7
652.415	-1
652.537	-11
652.659	12
652.781	16
652.903	4
653.026	30
653.148	21
653.27	10
653.392	6
653.514	23
653.636	9
653.758	15
653.88	22
654.002	13
654.124	15
654.247	13
654.369	32
654.491	20
654.613	30
654.735	-1
654.857	32
654.979	34
655.101	32
655.223	47
655.345	11
655.468	16
655.59	31
655.712	28
655.834	40
655.956	21
656.078	19
656.2	47
656.322	40
656.444	33
656.566	51
656.689	37
656.811	72
656.933	97
657.055	94
657.177	147
657.299	251
657.421	484
657.543	1869
657.665	12418
657.787	15154
657.91	15209
658.032	15665
658.154	4536
658.276	3236
658.398	1122
658.52	1014
658.642	482
658.764	565
658.886	271
659.009	413
659.131	213
659.253	323
659.375	155
659.497	243
659.619	142
659.741	220
659.863	84
659.985	166
660.108	87
660.23	139
660.352	70
660.474	144
660.596	92
660.718	131
660.84	59
660.962	124
661.084	52
661.207	94
661.329	54
661.451	98
661.573	60
661.695	104
661.817	67
661.939	110
662.061	84
662.184	84
662.306	25
662.428	54
662.55	46
662.672	74
662.794	40
662.916	55
663.038	33
663.161	87
663.283	30
663.405	78
663.527	34
663.649	69
663.771	32
663.893	45
664.015	46
664.138	58
664.26	40
664.382	41
664.504	8
664.626	50
664.748	18
664.87	44
664.992	42
665.115	38
665.237	35
665.359	51
665.481	31
665.603	40
665.725	12
665.847	22
665.97	14
666.092	45
666.214	24
666.336	15
666.458	24
666.58	34
666.702	15
666.825	47
666.947	3
667.069	37
667.191	23
667.313	60
667.435	21
667.557	28
667.68	8
667.802	15
667.924	15
668.046	48
668.168	21
668.29	37
668.412	30
668.535	39
668.657	27
668.779	34
668.901	22
669.023	45
669.145	26
669.267	33
669.39	29
669.512	34
669.634	20
669.756	35
669.878	30
670	34
670.123	16
670.245	51
670.367	24
670.489	46
670.611	10
670.733	8
670.856	-11
670.978	11
671.1	15
671.222	40
671.344	8
671.466	9
671.589	8
671.711	2
671.833	11
671.955	23
672.077	3
672.199	31
672.322	40
672.444	15
672.566	25
672.688	24
672.81	23
672.932	27
673.055	11
673.177	22
673.299	29
673.421	9
673.543	27
673.665	46
673.788	29
673.91	14
674.032	-6
674.154	26
674.276	12
674.399	2
674.521	8
674.643	11
674.765	5
674.887	40
675.009	19
675.132	16
675.254	9
675.376	19
675.498	4
675.62	33
675.743	6
675.865	33
675.987	-9
676.109	-3
676.231	23
676.354	37
676.476	2
676.598	44
676.72	17
676.842	28
676.965	-2
677.087	38
677.209	19
677.331	24
677.453	11
677.576	-2
677.698	13
677.82	35
677.942	-10
678.064	9
678.187	7
678.309	16
678.431	-8
678.553	26
678.675	27
678.798	48
678.92	0
679.042	6
679.164	-12
679.286	26
679.409	10
679.531	8
679.653	13
679.775	13
679.898	12
680.02	13
680.142	16
680.264	26
680.386	-5
680.509	17
680.631	22
680.753	24
680.875	-8
680.998	20
681.12	10
681.242	24
681.364	0
681.486	14
681.609	-5
681.731	2
681.853	4
681.975	14
682.098	17
682.22	39
682.342	6
682.464	19
682.587	10
682.709	15
682.831	-11
682.953	7
683.076	4
683.198	24
683.32	9
683.442	29
683.565	11
683.687	7
683.809	10
683.931	-10
684.054	21
684.176	18
684.298	10
684.42	8
684.543	14
684.665	-1
684.787	9
684.909	3
685.032	20
685.154	-8
685.276	12
685.398	9
685.521	-20
685.643	16
685.765	17
685.887	14
686.01	14
686.132	12
686.254	18
686.377	11
686.499	8
686.621	20
686.743	11
686.866	0
686.988	29
687.11	12
687.232	8
687.355	-1
687.477	21
687.599	24
687.722	2
687.844	29
687.966	14
688.088	26
688.211	24
688.333	23
688.455	20
688.578	24
688.7	5
688.822	9
688.944	-4
689.067	34
689.189	4
689.311	-1
689.434	2
689.556	14
689.678	32
689.801	22
689.923	17
690.045	11
690.167	24
690.29	23
690.412	-3
690.534	20
690.657	24
690.779	7
690.901	25
691.024	13
691.146	-5
691.268	11
691.391	7
691.513	42
691.635	30
691.758	34
691.88	27
692.002	22
692.125	12
692.247	2
692.369	25
692.492	7
692.614	11
692.736	19
692.859	2
692.981	6
693.103	0
693.226	21
693.348	26
693.47	18
693.593	-2
693.715	9
693.837	4
693.96	-1
694.082	-12
694.204	26
694.327	23
694.449	-5
694.571	-5
694.694	17
694.816	-11
694.938	3
695.061	5
695.183	29
695.305	25
695.428	24
695.55	-6
695.672	7
695.795	9
695.917	41
696.04	17
696.162	20
696.284	13
696.407	10
696.529	9
696.651	33
696.774	22
696.896	26
697.019	29
697.141	7
697.263	-10
697.386	3
697.508	3
697.63	22
697.753	7
697.875	14
697.998	-2
698.12	15
698.242	-1
698.365	20
698.487	8
698.61	22
698.732	21
698.854	20
698.977	19
699.099	26
699.221	2
699.344	-6
699.466	6
699.589	16
699.711	4
699.834	10
699.956	12
700.078	7
700.201	9
700.323	20
700.446	2
700.568	-7
700.69	11
700.813	8
700.935	5
701.058	4
701.18	10
701.302	27
701.425	-12
701.547	23
701.67	-6
701.792	31
701.915	9
702.037	23
702.159	17
702.282	14
702.404	-2
702.527	16
702.649	28
702.772	15
702.894	6
703.017	21
703.139	10
703.261	18
703.384	4
703.506	1
703.629	-9
703.751	28
703.874	22
703.996	12
704.119	-8
704.241	10
704.364	-7
704.486	26
704.608	18
704.731	2
704.853	25
704.976	7
705.098	16
705.221	18
705.343	8
705.466	14
705.588	34
705.711	20
705.833	16
705.956	24
706.078	7
706.201	27
706.323	3
706.446	4
