Data from LowRes_H2_15_26_11_07_2024_HR4C61881__48__15-28-18-437.txt Node

Date: Thu Nov 07 15:28:18 EST 2024
User: crc00042
Spectrometer: HR4C6188
Trigger mode: 4
Integration Time (sec): 1.000000E-1
Scans to average: 1
Electric dark correction enabled: true
Nonlinearity correction enabled: false
Boxcar width: 0
XAxis mode: Wavelengths
Number of Pixels in Spectrum: 3648
>>>>>Begin Spectral Data<<<<<
245.66	-108
245.797	-108
245.934	-108
246.071	-81
246.208	2
246.344	5
246.481	-13
246.618	-24
246.755	5
246.892	-15
247.029	-19
247.165	-7
247.302	10
247.439	-1
247.576	18
247.713	0
247.849	42
247.986	-1
248.123	-1
248.26	9
248.396	7
248.533	4
248.67	-9
248.806	3
248.943	-12
249.08	-19
249.216	10
249.353	-8
249.49	-15
249.626	14
249.763	1
249.9	-8
250.036	-13
250.173	-11
250.309	-3
250.446	14
250.582	3
250.719	-13
250.856	0
250.992	11
251.129	-4
251.265	9
251.402	-4
251.538	-7
251.675	-3
251.811	22
251.948	8
252.084	4
252.221	11
252.357	-14
252.493	15
252.63	-4
252.766	50
252.903	18
253.039	3
253.175	-12
253.312	-2
253.448	1
253.585	-14
253.721	11
253.857	-3
253.994	1
254.13	9
254.266	13
254.403	0
254.539	13
254.675	10
254.811	2
254.948	-3
255.084	-1
255.22	-11
255.356	-9
255.493	-1
255.629	8
255.765	11
255.901	1
256.037	21
256.174	10
256.31	-7
256.446	-6
256.582	2
256.718	7
256.854	21
256.991	16
257.127	10
257.263	-5
257.399	18
257.535	-9
257.671	8
257.807	-30
257.943	-2
258.079	-17
258.215	-7
258.351	15
258.487	4
258.623	24
258.759	7
258.895	-13
259.031	2
259.167	-16
259.303	10
259.439	12
259.575	12
259.711	5
259.847	-11
259.983	4
260.119	-5
260.255	6
260.391	11
260.527	-3
260.663	5
260.799	-3
260.934	-1
261.07	-4
261.206	-17
261.342	-17
261.478	-2
261.614	-7
261.749	-9
261.885	8
262.021	-10
262.157	23
262.293	11
262.428	-13
262.564	-3
262.7	22
262.836	7
262.971	6
263.107	8
263.243	20
263.378	-9
263.514	-16
263.65	-14
263.785	-23
263.921	-4
264.057	6
264.192	12
264.328	5
264.464	-7
264.599	12
264.735	15
264.871	-13
265.006	-12
265.142	0
265.277	10
265.413	18
265.548	10
265.684	9
265.819	-7
265.955	-11
266.091	-15
266.226	8
266.362	3
266.497	2
266.633	3
266.768	-20
266.903	12
267.039	37
267.174	6
267.31	-9
267.445	-8
267.581	-4
267.716	5
267.851	3
267.987	20
268.122	12
268.258	-6
268.393	-1
268.528	5
268.664	-22
268.799	-5
268.934	3
269.07	-15
269.205	5
269.34	9
269.476	13
269.611	-13
269.746	15
269.881	6
270.017	33
270.152	1
270.287	0
270.422	1
270.558	-15
270.693	13
270.828	11
270.963	-12
271.098	-8
271.234	-16
271.369	15
271.504	-5
271.639	1
271.774	-5
271.909	9
272.045	-12
272.18	14
272.315	-7
272.45	17
272.585	-12
272.72	-3
272.855	-4
272.99	20
273.125	-4
273.26	-3
273.395	-13
273.53	-30
273.665	6
273.8	13
273.935	0
274.07	-6
274.205	8
274.34	1
274.475	-15
274.61	13
274.745	-23
274.88	12
275.015	-2
275.15	20
275.285	8
275.42	4
275.555	18
275.69	15
275.825	-15
275.959	18
276.094	-11
276.229	6
276.364	-18
276.499	-4
276.634	8
276.768	-13
276.903	-5
277.038	15
277.173	-5
277.308	-8
277.442	-27
277.577	-7
277.712	5
277.847	10
277.981	3
278.116	-21
278.251	9
278.386	-1
278.52	16
278.655	9
278.79	26
278.924	6
279.059	2
279.194	-23
279.328	37
279.463	17
279.598	7
279.732	3
279.867	1
280.001	17
280.136	-4
280.271	0
280.405	1
280.54	-4
280.674	-6
280.809	6
280.943	1
281.078	-13
281.213	18
281.347	20
281.482	-11
281.616	-11
281.751	0
281.885	-19
282.02	-23
282.154	10
282.288	-11
282.423	-14
282.557	-5
282.692	9
282.826	1
282.961	4
283.095	1
283.229	-9
283.364	-15
283.498	-7
283.633	3
283.767	10
283.901	8
284.036	4
284.17	-5
284.304	-20
284.439	5
284.573	-3
284.707	12
284.842	-7
284.976	3
285.11	-16
285.244	12
285.379	46
285.513	-8
285.647	-16
285.781	-13
285.916	17
286.05	-4
286.184	17
286.318	10
286.453	-14
286.587	-12
286.721	-8
286.855	8
286.989	13
287.123	-4
287.258	-31
287.392	-9
287.526	2
287.66	-13
287.794	-17
287.928	5
288.062	-13
288.196	-2
288.33	-3
288.464	20
288.598	5
288.733	4
288.867	13
289.001	1
289.135	3
289.269	-2
289.403	15
289.537	-10
289.671	0
289.805	-30
289.939	11
290.073	15
290.207	20
290.34	-6
290.474	20
290.608	5
290.742	-22
290.876	-13
291.01	-2
291.144	33
291.278	28
291.412	-4
291.546	-3
291.679	-8
291.813	-4
291.947	12
292.081	-5
292.215	-13
292.349	-6
292.482	-3
292.616	-6
292.75	-15
292.884	19
293.018	7
293.151	-14
293.285	-11
293.419	-11
293.553	3
293.686	-4
293.82	-4
293.954	33
294.088	17
294.221	-10
294.355	3
294.489	5
294.622	-17
294.756	-6
294.89	0
295.023	22
295.157	16
295.291	-1
295.424	24
295.558	5
295.691	-2
295.825	3
295.959	6
296.092	-5
296.226	8
296.359	-13
296.493	7
296.627	12
296.76	2
296.894	-1
297.027	5
297.161	0
297.294	-14
297.428	-8
297.561	8
297.695	-4
297.828	-15
297.962	4
298.095	-22
298.229	-5
298.362	-11
298.495	-15
298.629	-4
298.762	0
298.896	12
299.029	-10
299.162	5
299.296	20
299.429	-3
299.563	1
299.696	6
299.829	11
299.963	11
300.096	16
300.229	20
300.363	3
300.496	5
300.629	0
300.763	11
300.896	4
301.029	16
301.162	-3
301.296	-33
301.429	-4
301.562	-26
301.695	2
301.829	2
301.962	12
302.095	0
302.228	-31
302.362	-3
302.495	-10
302.628	7
302.761	-19
302.894	0
303.027	21
303.161	-13
303.294	-9
303.427	18
303.56	6
303.693	-13
303.826	-5
303.959	14
304.092	8
304.225	-10
304.359	-16
304.492	6
304.625	-6
304.758	-1
304.891	-7
305.024	-10
305.157	2
305.29	15
305.423	9
305.556	15
305.689	12
305.822	-9
305.955	7
306.088	-8
306.221	-1
306.354	-15
306.487	3
306.62	-15
306.752	-8
306.885	1
307.018	-14
307.151	-6
307.284	18
307.417	-4
307.55	24
307.683	-3
307.816	13
307.948	13
308.081	4
308.214	16
308.347	19
308.48	-3
308.613	-19
308.745	13
308.878	4
309.011	-15
309.144	15
309.277	2
309.409	21
309.542	-6
309.675	19
309.808	22
309.94	29
310.073	-2
310.206	0
310.339	0
310.471	-12
310.604	18
310.737	-11
310.869	7
311.002	-3
311.135	12
311.267	-7
311.4	9
311.533	29
311.665	-3
311.798	-13
311.93	2
312.063	10
312.196	10
312.328	-8
312.461	-16
312.593	-4
312.726	13
312.859	9
312.991	2
313.124	-28
313.256	11
313.389	1
313.521	-19
313.654	-7
313.786	-34
313.919	-21
314.051	6
314.184	13
314.316	5
314.449	-22
314.581	-20
314.714	24
314.846	19
314.978	-11
315.111	14
315.243	6
315.376	-12
315.508	19
315.641	0
315.773	19
315.905	10
316.038	-4
316.17	-1
316.302	6
316.435	-13
316.567	-3
316.699	13
316.832	-13
316.964	-1
317.096	2
317.229	-21
317.361	-31
317.493	-5
317.625	-17
317.758	0
317.89	16
318.022	-15
318.155	-7
318.287	-12
318.419	6
318.551	6
318.683	-14
318.816	-12
318.948	19
319.08	-15
319.212	3
319.344	5
319.477	-8
319.609	4
319.741	-13
319.873	-7
320.005	12
320.137	-4
320.269	2
320.401	-1
320.534	-16
320.666	-10
320.798	-10
320.93	12
321.062	-8
321.194	0
321.326	0
321.458	17
321.59	-3
321.722	11
321.854	3
321.986	1
322.118	11
322.25	-2
322.382	-14
322.514	-10
322.646	-14
322.778	11
322.91	-1
323.042	-7
323.174	6
323.306	8
323.438	3
323.57	-5
323.702	17
323.834	4
323.966	-6
324.097	6
324.229	1
324.361	-5
324.493	1
324.625	-13
324.757	12
324.889	10
325.021	7
325.152	8
325.284	16
325.416	-6
325.548	9
325.68	-12
325.811	22
325.943	13
326.075	2
326.207	1
326.339	-3
326.47	-18
326.602	19
326.734	16
326.866	1
326.997	-31
327.129	-16
327.261	-27
327.392	-1
327.524	7
327.656	-26
327.787	13
327.919	17
328.051	-2
328.182	16
328.314	12
328.446	3
328.577	17
328.709	-12
328.841	7
328.972	-12
329.104	-12
329.235	1
329.367	-2
329.499	4
329.63	1
329.762	-4
329.893	15
330.025	11
330.156	-2
330.288	6
330.419	-7
330.551	24
330.683	13
330.814	-7
330.946	14
331.077	-13
331.208	-8
331.34	-4
331.471	-12
331.603	-12
331.734	-18
331.866	-2
331.997	23
332.129	6
332.26	-7
332.392	24
332.523	-1
332.654	-12
332.786	-3
332.917	-9
333.048	15
333.18	4
333.311	-9
333.443	8
333.574	-5
333.705	11
333.837	-29
333.968	-16
334.099	17
334.231	14
334.362	8
334.493	10
334.624	5
334.756	8
334.887	8
335.018	10
335.15	9
335.281	1
335.412	-4
335.543	22
335.675	-4
335.806	2
335.937	-2
336.068	17
336.199	45
336.331	-5
336.462	5
336.593	21
336.724	-1
336.855	15
336.986	17
337.118	29
337.249	19
337.38	6
337.511	13
337.642	11
337.773	-5
337.904	14
338.035	12
338.166	-1
338.298	-3
338.429	-1
338.56	17
338.691	9
338.822	3
338.953	7
339.084	8
339.215	13
339.346	3
339.477	21
339.608	1
339.739	10
339.87	5
340.001	-7
340.132	4
340.263	1
340.394	2
340.525	21
340.656	-9
340.787	-4
340.918	16
341.049	6
341.179	0
341.31	14
341.441	-5
341.572	8
341.703	2
341.834	-16
341.965	16
342.096	2
342.227	-15
342.357	-19
342.488	4
342.619	5
342.75	5
342.881	2
343.012	15
343.142	23
343.273	-1
343.404	2
343.535	23
343.666	11
343.796	23
343.927	16
344.058	27
344.189	8
344.319	1
344.45	-5
344.581	-13
344.712	-14
344.842	0
344.973	8
345.104	10
345.234	-1
345.365	-28
345.496	-11
345.626	26
345.757	18
345.888	3
346.018	11
346.149	-8
346.28	9
346.41	-17
346.541	6
346.672	-7
346.802	5
346.933	-1
347.063	-6
347.194	-7
347.325	-8
347.455	1
347.586	-1
347.716	-4
347.847	10
347.977	8
348.108	-6
348.238	0
348.369	-14
348.499	11
348.63	-7
348.76	2
348.891	-3
349.021	-1
349.152	18
349.282	18
349.413	-9
349.543	-4
349.674	17
349.804	-1
349.935	-13
350.065	8
350.196	7
350.326	12
350.456	-2
350.587	15
350.717	2
350.848	12
350.978	24
351.108	13
351.239	26
351.369	-12
351.499	-14
351.63	-1
351.76	9
351.89	-11
352.021	0
352.151	2
352.281	9
352.412	15
352.542	-9
352.672	2
352.803	-3
352.933	-5
353.063	0
353.193	-3
353.324	1
353.454	10
353.584	12
353.714	-12
353.845	8
353.975	-6
354.105	-3
354.235	14
354.365	0
354.496	13
354.626	9
354.756	13
354.886	3
355.016	13
355.146	-6
355.277	16
355.407	2
355.537	-4
355.667	12
355.797	-19
355.927	-8
356.057	3
356.187	-6
356.318	-16
356.448	-6
356.578	10
356.708	22
356.838	-12
356.968	-11
357.098	8
357.228	19
357.358	5
357.488	2
357.618	38
357.748	5
357.878	-8
358.008	6
358.138	-8
358.268	-14
358.398	3
358.528	-10
358.658	9
358.788	-8
358.918	7
359.048	12
359.178	17
359.308	0
359.438	29
359.568	20
359.698	2
359.827	19
359.957	1
360.087	24
360.217	2
360.347	0
360.477	14
360.607	5
360.737	24
360.866	2
360.996	-21
361.126	-15
361.256	38
361.386	21
361.516	23
361.645	-22
361.775	22
361.905	1
362.035	15
362.165	6
362.294	12
362.424	20
362.554	6
362.684	-9
362.813	-1
362.943	19
363.073	2
363.203	20
363.332	7
363.462	-1
363.592	0
363.721	7
363.851	-4
363.981	3
364.111	-5
364.24	-16
364.37	13
364.5	24
364.629	6
364.759	-3
364.888	-15
365.018	2
365.148	-3
365.277	9
365.407	5
365.537	-1
365.666	12
365.796	5
365.925	0
366.055	34
366.184	-2
366.314	6
366.444	1
366.573	0
366.703	-14
366.832	6
366.962	-1
367.091	14
367.221	24
367.35	4
367.48	49
367.609	14
367.739	-8
367.868	-22
367.998	-10
368.127	8
368.257	18
368.386	20
368.516	28
368.645	4
368.775	10
368.904	-14
369.033	0
369.163	-8
369.292	13
369.422	9
369.551	6
369.68	28
369.81	13
369.939	13
370.069	41
370.198	15
370.327	-10
370.457	10
370.586	-7
370.715	-19
370.845	10
370.974	3
371.103	15
371.233	31
371.362	22
371.491	-7
371.621	6
371.75	9
371.879	-14
372.008	3
372.138	9
372.267	19
372.396	15
372.525	10
372.655	9
372.784	22
372.913	-2
373.042	12
373.172	4
373.301	-7
373.43	-7
373.559	3
373.688	8
373.818	5
373.947	18
374.076	7
374.205	1
374.334	2
374.463	-1
374.593	8
374.722	6
374.851	24
374.98	-14
375.109	7
375.238	4
375.367	30
375.496	-4
375.625	8
375.755	20
375.884	11
376.013	13
376.142	-13
376.271	0
376.4	-1
376.529	19
376.658	28
376.787	-5
376.916	18
377.045	5
377.174	16
377.303	11
377.432	30
377.561	19
377.69	5
377.819	6
377.948	5
378.077	-8
378.206	-8
378.335	12
378.464	24
378.593	34
378.722	5
378.851	15
378.98	27
379.108	-9
379.237	-1
379.366	-4
379.495	1
379.624	14
379.753	5
379.882	12
380.011	-3
380.14	10
380.268	15
380.397	4
380.526	25
380.655	-19
380.784	-18
380.913	13
381.041	0
381.17	-9
381.299	17
381.428	23
381.557	-1
381.685	-14
381.814	5
381.943	-6
382.072	-3
382.2	-6
382.329	6
382.458	1
382.587	29
382.715	26
382.844	8
382.973	15
383.102	3
383.23	2
383.359	2
383.488	23
383.616	11
383.745	1
383.874	-7
384.003	11
384.131	7
384.26	10
384.389	18
384.517	-9
384.646	-5
384.774	3
384.903	21
385.032	12
385.16	-8
385.289	-10
385.418	-3
385.546	-1
385.675	11
385.803	-16
385.932	4
386.06	3
386.189	-1
386.318	-24
386.446	4
386.575	8
386.703	27
386.832	-3
386.96	-30
387.089	7
387.217	9
387.346	-12
387.474	3
387.603	2
387.731	-7
387.86	4
387.988	3
388.117	17
388.245	6
388.374	3
388.502	11
388.631	1
388.759	17
388.888	14
389.016	-10
389.144	-9
389.273	3
389.401	-8
389.53	-5
389.658	19
389.786	-7
389.915	-20
390.043	-12
390.172	-10
390.3	14
390.428	13
390.557	-6
390.685	10
390.813	31
390.942	22
391.07	1
391.198	9
391.327	0
391.455	-25
391.583	11
391.712	16
391.84	9
391.968	-5
392.096	-5
392.225	-20
392.353	8
392.481	-8
392.609	16
392.738	15
392.866	13
392.994	0
393.122	17
393.251	-19
393.379	12
393.507	-6
393.635	-4
393.764	8
393.892	24
394.02	8
394.148	10
394.276	10
394.404	27
394.533	7
394.661	12
394.789	21
394.917	29
395.045	1
395.173	-1
395.302	5
395.43	-9
395.558	3
395.686	2
395.814	14
395.942	-5
396.07	21
396.198	-3
396.326	-16
396.454	3
396.582	3
396.711	1
396.839	20
396.967	7
397.095	-5
397.223	13
397.351	22
397.479	12
397.607	4
397.735	21
397.863	8
397.991	18
398.119	-16
398.247	4
398.375	-7
398.503	11
398.631	1
398.759	26
398.887	1
399.015	7
399.143	13
399.271	-13
399.399	0
399.526	19
399.654	15
399.782	-5
399.91	26
400.038	36
400.166	1
400.294	9
400.422	-1
400.55	20
400.678	8
400.805	3
400.933	14
401.061	16
401.189	-3
401.317	23
401.445	13
401.573	-1
401.7	-9
401.828	-10
401.956	-12
402.084	11
402.212	7
402.34	2
402.467	21
402.595	17
402.723	5
402.851	13
402.978	-1
403.106	17
403.234	1
403.362	32
403.489	12
403.617	2
403.745	7
403.873	-13
404	9
404.128	3
404.256	15
404.384	0
404.511	-13
404.639	-2
404.767	10
404.894	2
405.022	-9
405.15	3
405.277	4
405.405	8
405.533	1
405.66	-9
405.788	-12
405.916	-17
406.043	3
406.171	-1
406.299	10
406.426	21
406.554	0
406.681	35
406.809	5
406.937	2
407.064	-4
407.192	9
407.319	14
407.447	-4
407.574	10
407.702	26
407.83	7
407.957	-16
408.085	15
408.212	7
408.34	0
408.467	2
408.595	-8
408.722	19
408.85	19
408.977	2
409.105	8
409.232	11
409.36	6
409.487	14
409.615	15
409.742	14
409.87	13
409.997	36
410.125	29
410.252	42
410.379	43
410.507	14
410.634	1
410.762	9
410.889	23
411.017	12
411.144	23
411.271	1
411.399	17
411.526	10
411.653	21
411.781	31
411.908	11
412.036	-3
412.163	26
412.29	22
412.418	5
412.545	19
412.672	5
412.8	32
412.927	8
413.054	29
413.182	7
413.309	12
413.436	-18
413.564	-1
413.691	-9
413.818	4
413.945	-13
414.073	0
414.2	17
414.327	19
414.454	16
414.582	8
414.709	9
414.836	11
414.963	3
415.091	4
415.218	4
415.345	-1
415.472	3
415.6	5
415.727	0
415.854	-1
415.981	7
416.108	2
416.236	-2
416.363	18
416.49	8
416.617	22
416.744	13
416.871	14
416.998	6
417.126	23
417.253	-13
417.38	-14
417.507	-8
417.634	12
417.761	17
417.888	15
418.015	10
418.143	0
418.27	1
418.397	-3
418.524	20
418.651	-11
418.778	3
418.905	26
419.032	18
419.159	17
419.286	28
419.413	23
419.54	3
419.667	1
419.794	-2
419.921	15
420.048	28
420.175	14
420.302	1
420.429	15
420.556	1
420.683	-13
420.81	2
420.937	7
421.064	10
421.191	14
421.318	23
421.445	20
421.572	-10
421.699	27
421.826	25
421.953	26
422.08	7
422.207	-9
422.334	-2
422.461	20
422.588	10
422.714	3
422.841	33
422.968	22
423.095	4
423.222	10
423.349	-5
423.476	2
423.603	12
423.729	-9
423.856	3
423.983	16
424.11	9
424.237	2
424.364	11
424.491	11
424.617	0
424.744	0
424.871	28
424.998	14
425.125	-3
425.251	21
425.378	0
425.505	-3
425.632	13
425.758	3
425.885	13
426.012	25
426.139	31
426.266	-7
426.392	-10
426.519	2
426.646	10
426.772	9
426.899	12
427.026	16
427.153	13
427.279	19
427.406	2
427.533	6
427.659	4
427.786	2
427.913	20
428.039	4
428.166	9
428.293	-2
428.419	17
428.546	11
428.673	-7
428.799	-11
428.926	10
429.053	24
429.179	18
429.306	5
429.433	20
429.559	21
429.686	9
429.812	-11
429.939	-7
430.066	22
430.192	0
430.319	9
430.445	3
430.572	11
430.699	7
430.825	-4
430.952	5
431.078	10
431.205	12
431.331	4
431.458	18
431.584	12
431.711	5
431.837	6
431.964	11
432.09	16
432.217	-9
432.343	3
432.47	21
432.596	16
432.723	-9
432.849	2
432.976	17
433.102	0
433.229	9
433.355	27
433.482	78
433.608	149
433.735	129
433.861	119
433.987	160
434.114	230
434.24	201
434.367	54
434.493	3
434.62	25
434.746	14
434.872	16
434.999	32
435.125	7
435.252	-1
435.378	12
435.504	12
435.631	13
435.757	26
435.883	-1
436.01	26
436.136	17
436.262	9
436.389	11
436.515	26
436.641	21
436.768	11
436.894	14
437.02	6
437.147	35
437.273	-2
437.399	8
437.526	32
437.652	13
437.778	18
437.904	2
438.031	8
438.157	9
438.283	6
438.409	0
438.536	1
438.662	19
438.788	25
438.914	15
439.041	19
439.167	31
439.293	3
439.419	-6
439.546	19
439.672	17
439.798	14
439.924	23
440.05	30
440.177	8
440.303	13
440.429	-1
440.555	15
440.681	-1
440.807	17
440.934	25
441.06	0
441.186	6
441.312	15
441.438	7
441.564	27
441.69	21
441.816	8
441.943	-2
442.069	14
442.195	1
442.321	17
442.447	-2
442.573	-2
442.699	1
442.825	-18
442.951	5
443.077	26
443.203	32
443.33	-3
443.456	-10
443.582	32
443.708	5
443.834	25
443.96	12
444.086	16
444.212	25
444.338	20
444.464	17
444.59	17
444.716	20
444.842	13
444.968	1
445.094	8
445.22	1
445.346	-13
445.472	11
445.598	8
445.724	4
445.85	12
445.976	0
446.102	9
446.228	31
446.354	23
446.48	-2
446.605	13
446.731	5
446.857	-1
446.983	21
447.109	-7
447.235	6
447.361	5
447.487	8
447.613	8
447.739	4
447.865	-6
447.99	-1
448.116	7
448.242	29
448.368	17
448.494	-4
448.62	13
448.746	13
448.872	-2
448.997	-4
449.123	15
449.249	37
449.375	28
449.501	-9
449.627	-16
449.752	29
449.878	-1
450.004	16
450.13	12
450.256	-5
450.381	11
450.507	1
450.633	16
450.759	21
450.884	9
451.01	22
451.136	10
451.262	21
451.388	29
451.513	0
451.639	18
451.765	3
451.89	7
452.016	13
452.142	19
452.268	17
452.393	7
452.519	2
452.645	-9
452.771	15
452.896	20
453.022	-15
453.148	28
453.273	2
453.399	19
453.525	-16
453.65	9
453.776	22
453.902	21
454.027	23
454.153	15
454.279	17
454.404	23
454.53	18
454.656	44
454.781	13
454.907	-2
455.032	4
455.158	17
455.284	22
455.409	24
455.535	33
455.66	35
455.786	27
455.912	26
456.037	7
456.163	21
456.288	13
456.414	8
456.539	-6
456.665	14
456.791	11
456.916	0
457.042	4
457.167	-5
457.293	21
457.418	22
457.544	26
457.669	20
457.795	21
457.92	32
458.046	22
458.171	16
458.297	16
458.422	-6
458.548	-7
458.673	0
458.799	-10
458.924	9
459.05	35
459.175	-5
459.301	-6
459.426	9
459.552	16
459.677	1
459.803	8
459.928	12
460.053	23
460.179	17
460.304	8
460.43	-20
460.555	22
460.681	13
460.806	12
460.931	9
461.057	16
461.182	0
461.308	38
461.433	19
461.558	6
461.684	32
461.809	13
461.934	9
462.06	15
462.185	-16
462.311	13
462.436	17
462.561	20
462.687	15
462.812	8
462.937	-6
463.063	-16
463.188	0
463.313	11
463.439	9
463.564	-3
463.689	2
463.814	4
463.94	5
464.065	15
464.19	9
464.316	1
464.441	-1
464.566	10
464.692	16
464.817	5
464.942	1
465.067	-8
465.193	-21
465.318	3
465.443	0
465.568	4
465.694	14
465.819	23
465.944	17
466.069	10
466.194	0
466.32	22
466.445	-4
466.57	0
466.695	-2
466.82	21
466.946	17
467.071	-10
467.196	5
467.321	7
467.446	5
467.572	6
467.697	-1
467.822	9
467.947	27
468.072	1
468.197	3
468.323	-5
468.448	9
468.573	0
468.698	12
468.823	12
468.948	13
469.073	4
469.198	20
469.324	22
469.449	-1
469.574	25
469.699	28
469.824	27
469.949	27
470.074	1
470.199	25
470.324	27
470.449	21
470.574	-1
470.7	-10
470.825	25
470.95	45
471.075	7
471.2	14
471.325	27
471.45	11
471.575	-4
471.7	15
471.825	15
471.95	-4
472.075	-2
472.2	5
472.325	15
472.45	-9
472.575	9
472.7	20
472.825	25
472.95	13
473.075	15
473.2	20
473.325	11
473.45	-5
473.575	4
473.7	0
473.825	21
473.95	21
474.075	36
474.2	3
474.325	-6
474.45	19
474.574	6
474.699	24
474.824	24
474.949	10
475.074	3
475.199	26
475.324	28
475.449	5
475.574	25
475.699	7
475.824	5
475.949	-1
476.073	7
476.198	1
476.323	3
476.448	-1
476.573	-16
476.698	31
476.823	24
476.947	18
477.072	10
477.197	26
477.322	-4
477.447	-15
477.572	23
477.697	2
477.821	-6
477.946	8
478.071	10
478.196	19
478.321	23
478.445	25
478.57	6
478.695	18
478.82	11
478.945	22
479.069	-4
479.194	14
479.319	23
479.444	13
479.569	20
479.693	37
479.818	24
479.943	23
480.068	20
480.192	26
480.317	31
480.442	1
480.567	-3
480.691	20
480.816	16
480.941	-4
481.066	11
481.19	36
481.315	16
481.44	3
481.564	5
481.689	17
481.814	19
481.938	11
482.063	2
482.188	16
482.313	33
482.437	8
482.562	22
482.687	18
482.811	27
482.936	33
483.061	28
483.185	16
483.31	19
483.435	19
483.559	19
483.684	11
483.808	36
483.933	9
484.058	0
484.182	16
484.307	19
484.432	24
484.556	7
484.681	18
484.805	39
484.93	35
485.055	53
485.179	84
485.304	120
485.428	369
485.553	1217
485.678	1725
485.802	1648
485.927	1784
486.051	2679
486.176	1657
486.3	437
486.425	141
486.549	60
486.674	64
486.799	40
486.923	13
487.048	14
487.172	27
487.297	31
487.421	48
487.546	28
487.67	34
487.795	-4
487.919	-3
488.044	18
488.168	47
488.293	26
488.417	12
488.542	22
488.666	35
488.791	23
488.915	23
489.04	32
489.164	29
489.289	38
489.413	9
489.538	17
489.662	13
489.786	8
489.911	13
490.035	21
490.16	4
490.284	-9
490.409	-4
490.533	9
490.658	37
490.782	2
490.906	14
491.031	14
491.155	11
491.28	27
491.404	22
491.528	20
491.653	4
491.777	19
491.902	-11
492.026	20
492.15	29
492.275	25
492.399	35
492.524	-4
492.648	33
492.772	30
492.897	30
493.021	12
493.145	21
493.27	15
493.394	-7
493.518	-3
493.643	-3
493.767	28
493.891	10
494.016	9
494.14	26
494.264	21
494.389	16
494.513	-2
494.637	-8
494.762	21
494.886	21
495.01	29
495.134	21
495.259	25
495.383	9
495.507	20
495.632	39
495.756	50
495.88	13
496.004	3
496.129	24
496.253	16
496.377	2
496.501	33
496.626	8
496.75	15
496.874	31
496.998	4
497.123	17
497.247	8
497.371	-20
497.495	1
497.62	37
497.744	10
497.868	2
497.992	6
498.116	6
498.241	11
498.365	22
498.489	11
498.613	28
498.737	-1
498.862	15
498.986	11
499.11	5
499.234	-1
499.358	-8
499.482	13
499.607	19
499.731	21
499.855	21
499.979	25
500.103	21
500.227	16
500.351	11
500.476	13
500.6	11
500.724	28
500.848	17
500.972	12
501.096	9
501.22	27
501.344	24
501.469	6
501.593	25
501.717	26
501.841	31
501.965	11
502.089	-1
502.213	27
502.337	24
502.461	8
502.585	3
502.709	-1
502.834	19
502.958	20
503.082	12
503.206	24
503.33	37
503.454	4
503.578	11
503.702	28
503.826	26
503.95	26
504.074	12
504.198	13
504.322	4
504.446	-8
504.57	6
504.694	11
504.818	5
504.942	19
505.066	16
505.19	19
505.314	25
505.438	6
505.562	3
505.686	39
505.81	23
505.934	17
506.058	9
506.182	19
506.306	24
506.43	22
506.554	4
506.678	-6
506.802	9
506.926	14
507.05	8
507.174	33
507.298	26
507.422	11
507.546	11
507.67	37
507.794	6
507.918	16
508.042	15
508.165	9
508.289	-5
508.413	21
508.537	1
508.661	16
508.785	19
508.909	14
509.033	19
509.157	13
509.281	15
509.405	13
509.528	14
509.652	18
509.776	14
509.9	23
510.024	18
510.148	20
510.272	29
510.396	12
510.519	17
510.643	40
510.767	-2
510.891	0
511.015	8
511.139	10
511.263	32
511.386	4
511.51	3
511.634	13
511.758	7
511.882	5
512.006	15
512.129	9
512.253	36
512.377	6
512.501	35
512.625	9
512.748	9
512.872	7
512.996	17
513.12	22
513.244	-5
513.367	14
513.491	10
513.615	4
513.739	2
513.862	30
513.986	11
514.11	20
514.234	3
514.358	19
514.481	19
514.605	13
514.729	15
514.853	5
514.976	17
515.1	10
515.224	20
515.348	1
515.471	-2
515.595	3
515.719	17
515.842	38
515.966	12
516.09	25
516.214	24
516.337	36
516.461	21
516.585	18
516.708	47
516.832	16
516.956	21
517.08	20
517.203	-3
517.327	18
517.451	30
517.574	32
517.698	18
517.822	26
517.945	31
518.069	45
518.193	61
518.316	33
518.44	29
518.564	21
518.687	21
518.811	39
518.935	53
519.058	37
519.182	43
519.306	26
519.429	22
519.553	56
519.676	27
519.8	23
519.924	8
520.047	11
520.171	2
520.294	3
520.418	15
520.542	3
520.665	36
520.789	32
520.913	8
521.036	-7
521.16	-1
521.283	12
521.407	7
521.53	20
521.654	11
521.778	36
521.901	1
522.025	14
522.148	-7
522.272	8
522.395	16
522.519	29
522.643	9
522.766	2
522.89	0
523.013	27
523.137	0
523.26	4
523.384	11
523.507	30
523.631	8
523.754	7
523.878	6
524.002	13
524.125	-6
524.249	-17
524.372	8
524.496	4
524.619	27
524.743	10
524.866	23
524.99	21
525.113	12
525.237	19
525.36	25
525.484	27
525.607	1
525.731	-2
525.854	14
525.978	29
526.101	5
526.224	-1
526.348	3
526.471	15
526.595	11
526.718	10
526.842	5
526.965	10
527.089	5
527.212	9
527.336	3
527.459	22
527.582	11
527.706	18
527.829	13
527.953	27
528.076	2
528.2	-10
528.323	23
528.446	2
528.57	4
528.693	32
528.817	7
528.94	25
529.064	26
529.187	7
529.31	10
529.434	2
529.557	14
529.68	-4
529.804	-3
529.927	14
530.051	1
530.174	-1
530.297	8
530.421	19
530.544	21
530.668	20
530.791	-5
530.914	40
531.038	14
531.161	7
531.284	11
531.408	-6
531.531	1
531.654	-2
531.778	23
531.901	7
532.024	10
532.148	-8
532.271	10
532.394	14
532.518	18
532.641	18
532.764	44
532.888	17
533.011	-4
533.134	-6
533.258	18
533.381	13
533.504	15
533.628	11
533.751	24
533.874	15
533.997	10
534.121	4
534.244	18
534.367	13
534.491	8
534.614	7
534.737	10
534.86	7
534.984	3
535.107	20
535.23	1
535.354	6
535.477	-14
535.6	2
535.723	-8
535.847	20
535.97	-3
536.093	8
536.216	-13
536.34	9
536.463	2
536.586	18
536.709	18
536.833	28
536.956	28
537.079	15
537.202	16
537.325	11
537.449	1
537.572	21
537.695	5
537.818	9
537.941	3
538.065	7
538.188	-3
538.311	19
538.434	14
538.558	-6
538.681	17
538.804	33
538.927	14
539.05	11
539.173	13
539.297	-4
539.42	-3
539.543	14
539.666	30
539.789	20
539.913	13
540.036	13
540.159	5
540.282	7
540.405	9
540.528	11
540.651	20
540.775	9
540.898	17
541.021	9
541.144	12
541.267	13
541.39	6
541.513	11
541.637	0
541.76	9
541.883	-7
542.006	8
542.129	32
542.252	-3
542.375	13
542.498	-9
542.622	24
542.745	13
542.868	6
542.991	15
543.114	29
543.237	25
543.36	33
543.483	14
543.606	17
543.73	18
543.853	12
543.976	15
544.099	21
544.222	11
544.345	-6
544.468	2
544.591	9
544.714	20
544.837	45
544.96	4
545.083	25
545.206	12
545.329	33
545.453	18
545.576	10
545.699	-3
545.822	12
545.945	28
546.068	-16
546.191	9
546.314	5
546.437	15
546.56	27
546.683	25
546.806	22
546.929	17
547.052	2
547.175	8
547.298	13
547.421	11
547.544	4
547.667	8
547.79	24
547.913	-8
548.036	-10
548.159	0
548.282	22
548.405	7
548.528	23
548.651	1
548.774	27
548.897	25
549.02	18
549.143	18
549.266	9
549.389	23
549.512	5
549.635	24
549.758	14
549.881	1
550.004	3
550.127	7
550.25	-6
550.373	-13
550.496	16
550.619	5
550.742	-11
550.865	3
550.988	21
551.111	26
551.234	25
551.356	15
551.479	-9
551.602	10
551.725	-1
551.848	23
551.971	30
552.094	20
552.217	7
552.34	3
552.463	-13
552.586	10
552.709	6
552.832	-2
552.955	18
553.077	23
553.2	-7
553.323	-6
553.446	3
553.569	8
553.692	12
553.815	3
553.938	14
554.061	6
554.184	11
554.306	22
554.429	9
554.552	3
554.675	-15
554.798	-2
554.921	19
555.044	5
555.167	5
555.29	5
555.412	8
555.535	-2
555.658	4
555.781	14
555.904	13
556.027	28
556.15	8
556.272	-3
556.395	25
556.518	3
556.641	2
556.764	21
556.887	13
557.01	16
557.132	-8
557.255	6
557.378	24
557.501	13
557.624	13
557.747	0
557.869	16
557.992	12
558.115	26
558.238	3
558.361	8
558.483	28
558.606	26
558.729	4
558.852	35
558.975	33
559.098	29
559.22	24
559.343	29
559.466	23
559.589	3
559.712	26
559.834	25
559.957	17
560.08	9
560.203	19
560.325	39
560.448	24
560.571	6
560.694	14
560.817	15
560.939	14
561.062	-7
561.185	8
561.308	7
561.43	-3
561.553	6
561.676	5
561.799	10
561.921	-3
562.044	0
562.167	-3
562.29	29
562.413	27
562.535	29
562.658	10
562.781	13
562.903	12
563.026	9
563.149	16
563.272	-3
563.394	9
563.517	-3
563.64	11
563.763	-8
563.885	18
564.008	28
564.131	14
564.254	7
564.376	2
564.499	-7
564.622	7
564.744	13
564.867	24
564.99	15
565.113	26
565.235	9
565.358	-3
565.481	-7
565.603	-7
565.726	1
565.849	27
565.971	17
566.094	0
566.217	-3
566.34	14
566.462	12
566.585	17
566.708	20
566.83	7
566.953	20
567.076	5
567.198	12
567.321	-5
567.444	23
567.566	9
567.689	10
567.812	4
567.934	16
568.057	44
568.18	28
568.302	7
568.425	16
568.548	14
568.67	15
568.793	27
568.916	-4
569.038	5
569.161	4
569.283	9
569.406	10
569.529	-11
569.651	-8
569.774	11
569.897	9
570.019	-1
570.142	19
570.265	12
570.387	-1
570.51	15
570.632	25
570.755	1
570.878	-4
571	16
571.123	-1
571.246	18
571.368	8
571.491	-1
571.613	5
571.736	-4
571.859	1
571.981	-2
572.104	-6
572.226	9
572.349	-13
572.472	-5
572.594	26
572.717	11
572.839	-4
572.962	11
573.085	9
573.207	13
573.33	3
573.452	18
573.575	35
573.697	2
573.82	5
573.943	0
574.065	15
574.188	16
574.31	27
574.433	6
574.555	26
574.678	4
574.801	6
574.923	1
575.046	-7
575.168	-6
575.291	-4
575.413	-9
575.536	6
575.659	28
575.781	9
575.904	12
576.026	6
576.149	9
576.271	23
576.394	9
576.516	5
576.639	-5
576.761	11
576.884	3
577.007	3
577.129	7
577.252	17
577.374	26
577.497	-3
577.619	17
577.742	1
577.864	9
577.987	19
578.109	31
578.232	17
578.354	33
578.477	11
578.599	-1
578.722	-4
578.844	-2
578.967	11
579.089	-4
579.212	-1
579.334	25
579.457	5
579.579	3
579.702	3
579.824	4
579.947	0
580.069	1
580.192	6
580.314	25
580.437	19
580.559	29
580.682	2
580.804	7
580.927	21
581.049	44
581.172	24
581.294	19
581.417	24
581.539	17
581.662	28
581.784	22
581.907	4
582.029	5
582.152	19
582.274	15
582.396	14
582.519	2
582.641	-17
582.764	5
582.886	20
583.009	-6
583.131	20
583.254	16
583.376	21
583.499	21
583.621	27
583.743	26
583.866	26
583.988	14
584.111	18
584.233	15
584.356	22
584.478	9
584.601	-16
584.723	7
584.845	28
584.968	4
585.09	-10
585.213	11
585.335	5
585.458	6
585.58	7
585.702	26
585.825	20
585.947	14
586.07	4
586.192	13
586.315	19
586.437	2
586.559	9
586.682	-6
586.804	18
586.927	10
587.049	19
587.171	31
587.294	13
587.416	31
587.539	14
587.661	-7
587.783	1
587.906	13
588.028	10
588.151	14
588.273	11
588.395	7
588.518	11
588.64	3
588.763	16
588.885	23
589.007	14
589.13	0
589.252	10
589.375	7
589.497	31
589.619	10
589.742	12
589.864	23
589.986	11
590.109	-12
590.231	-1
590.354	17
590.476	-9
590.598	1
590.721	-12
590.843	18
590.965	10
591.088	18
591.21	23
591.332	23
591.455	-16
591.577	-5
591.7	9
591.822	1
591.944	3
592.067	-6
592.189	9
592.311	12
592.434	-4
592.556	13
592.678	19
592.801	12
592.923	23
593.045	2
593.168	19
593.29	12
593.412	26
593.535	-1
593.657	2
593.779	20
593.902	28
594.024	9
594.146	16
594.269	19
594.391	-10
594.513	17
594.636	12
594.758	-7
594.88	18
595.003	28
595.125	18
595.247	27
595.37	28
595.492	24
595.614	53
595.737	12
595.859	18
595.981	4
596.104	-6
596.226	-3
596.348	11
596.471	-7
596.593	2
596.715	-6
596.838	17
596.96	6
597.082	18
597.204	3
597.327	19
597.449	17
597.571	22
597.694	20
597.816	13
597.938	6
598.061	4
598.183	8
598.305	16
598.427	5
598.55	4
598.672	27
598.794	31
598.917	6
599.039	21
599.161	17
599.283	1
599.406	29
599.528	17
599.65	24
599.773	23
599.895	27
600.017	20
600.139	26
600.262	-4
600.384	0
600.506	16
600.628	33
600.751	26
600.873	8
600.995	5
601.118	23
601.24	6
601.362	16
601.484	19
601.607	24
601.729	17
601.851	19
601.973	16
602.096	19
602.218	26
602.34	29
602.462	22
602.585	-12
602.707	-4
602.829	36
602.951	4
603.074	-16
603.196	6
603.318	4
603.44	11
603.563	15
603.685	-9
603.807	6
603.929	23
604.052	18
604.174	5
604.296	15
604.418	9
604.541	16
604.663	3
604.785	9
604.907	17
605.03	-1
605.152	38
605.274	5
605.396	-1
605.519	3
605.641	15
605.763	4
605.885	6
606.008	22
606.13	10
606.252	15
606.374	-13
606.496	4
606.619	10
606.741	4
606.863	38
606.985	42
607.108	24
607.23	12
607.352	12
607.474	20
607.596	16
607.719	5
607.841	28
607.963	8
608.085	16
608.207	31
608.33	12
608.452	20
608.574	5
608.696	21
608.819	8
608.941	-1
609.063	9
609.185	-8
609.307	18
609.43	13
609.552	29
609.674	-18
609.796	18
609.918	11
610.041	8
610.163	10
610.285	7
610.407	-5
610.529	-31
610.652	14
610.774	20
610.896	9
611.018	17
611.14	20
611.263	-5
611.385	10
611.507	21
611.629	-3
611.751	2
611.873	29
611.996	11
612.118	27
612.24	7
612.362	0
612.484	16
612.607	10
612.729	19
612.851	10
612.973	0
613.095	-9
613.218	19
613.34	29
613.462	7
613.584	5
613.706	19
613.828	39
613.951	19
614.073	12
614.195	-1
614.317	31
614.439	6
614.561	25
614.684	15
614.806	1
614.928	26
615.05	23
615.172	22
615.294	22
615.417	15
615.539	-1
615.661	4
615.783	25
615.905	23
616.027	79
616.15	93
616.272	105
616.394	40
616.516	32
616.638	19
616.76	21
616.883	13
617.005	3
617.127	28
617.249	25
617.371	8
617.493	-6
617.615	18
617.738	15
617.86	23
617.982	8
618.104	9
618.226	0
618.348	-10
618.471	-3
618.593	24
618.715	-1
618.837	7
618.959	17
619.081	38
619.203	17
619.326	11
619.448	1
619.57	12
619.692	17
619.814	25
619.936	24
620.058	27
620.181	5
620.303	6
620.425	28
620.547	12
620.669	2
620.791	-3
620.913	-3
621.036	6
621.158	23
621.28	10
621.402	3
621.524	14
621.646	11
621.768	0
621.891	-7
622.013	3
622.135	1
622.257	13
622.379	-3
622.501	6
622.623	16
622.745	7
622.868	32
622.99	23
623.112	26
623.234	19
623.356	5
623.478	7
623.6	9
623.722	0
623.845	12
623.967	-6
624.089	0
624.211	4
624.333	24
624.455	9
624.577	-1
624.699	24
624.822	11
624.944	-3
625.066	9
625.188	1
625.31	1
625.432	31
625.554	26
625.676	32
625.799	3
625.921	5
626.043	7
626.165	4
626.287	-14
626.409	17
626.531	10
626.653	0
626.775	17
626.898	30
627.02	12
627.142	17
627.264	4
627.386	2
627.508	17
627.63	16
627.752	31
627.874	3
627.997	7
628.119	9
628.241	20
628.363	8
628.485	8
628.607	-4
628.729	-6
628.851	-5
628.973	13
629.096	-2
629.218	0
629.34	6
629.462	7
629.584	20
629.706	9
629.828	27
629.95	0
630.072	8
630.195	8
630.317	29
630.439	11
630.561	23
630.683	-4
630.805	8
630.927	24
631.049	8
631.171	0
631.293	16
631.416	10
631.538	11
631.66	30
631.782	20
631.904	19
632.026	3
632.148	5
632.27	-1
632.392	15
632.514	4
632.637	-4
632.759	2
632.881	14
633.003	8
633.125	-8
633.247	5
633.369	0
633.491	10
633.613	33
633.735	-6
633.858	24
633.98	3
634.102	-5
634.224	-10
634.346	-1
634.468	24
634.59	-7
634.712	10
634.834	24
634.956	-7
635.078	15
635.201	10
635.323	11
635.445	-11
635.567	-7
635.689	-3
635.811	-15
635.933	-18
636.055	-5
636.177	11
636.299	23
636.421	-4
636.544	0
636.666	18
636.788	8
636.91	28
637.032	-4
637.154	20
637.276	22
637.398	-2
637.52	6
637.642	20
637.764	5
637.887	8
638.009	21
638.131	-1
638.253	-17
638.375	15
638.497	10
638.619	-1
638.741	4
638.863	-5
638.985	6
639.107	5
639.23	-6
639.352	13
639.474	7
639.596	9
639.718	3
639.84	16
639.962	9
640.084	16
640.206	35
640.328	1
640.45	17
640.573	5
640.695	-1
640.817	6
640.939	7
641.061	11
641.183	10
641.305	-9
641.427	7
641.549	8
641.671	13
641.793	2
641.915	28
642.038	13
642.16	16
642.282	-7
642.404	7
642.526	12
642.648	-10
642.77	8
642.892	4
643.014	7
643.136	10
643.258	6
643.381	25
643.503	18
643.625	12
643.747	-4
643.869	0
643.991	-4
644.113	11
644.235	17
644.357	3
644.479	21
644.601	5
644.723	8
644.846	9
644.968	-5
645.09	8
645.212	19
645.334	26
645.456	4
645.578	19
645.7	11
645.822	5
645.944	12
646.066	3
646.188	3
646.311	10
646.433	0
646.555	44
646.677	36
646.799	10
646.921	33
647.043	32
647.165	8
647.287	15
647.409	-10
647.531	13
647.654	-9
647.776	21
647.898	19
648.02	3
648.142	5
648.264	-12
648.386	1
648.508	4
648.63	-4
648.752	-8
648.874	16
648.997	0
649.119	13
649.241	10
649.363	36
649.485	21
649.607	-8
649.729	10
649.851	11
649.973	14
650.095	22
650.217	-1
650.34	16
650.462	1
650.584	4
650.706	25
650.828	25
650.95	-9
651.072	17
651.194	1
651.316	6
651.438	3
651.56	0
651.683	-9
651.805	5
651.927	21
652.049	17
652.171	-3
652.293	17
652.415	12
652.537	-13
652.659	5
652.781	16
652.903	19
653.026	27
653.148	27
653.27	7
653.392	15
653.514	-3
653.636	4
653.758	11
653.88	6
654.002	14
654.124	7
654.247	-6
654.369	12
654.491	8
654.613	8
654.735	9
654.857	25
654.979	4
655.101	17
655.223	40
655.345	19
655.468	21
655.59	20
655.712	22
655.834	27
655.956	28
656.078	32
656.2	36
656.322	36
656.444	15
656.566	37
656.689	51
656.811	41
656.933	93
657.055	90
657.177	156
657.299	256
657.421	483
657.543	1862
657.665	12529
657.787	15162
657.91	15257
658.032	15662
658.154	4667
658.276	3592
658.398	1177
658.52	1047
658.642	497
658.764	595
658.886	290
659.009	432
659.131	212
659.253	313
659.375	167
659.497	247
659.619	129
659.741	203
659.863	91
659.985	149
660.108	87
660.23	138
660.352	77
660.474	133
660.596	80
660.718	129
660.84	63
660.962	112
661.084	62
661.207	100
661.329	60
661.451	91
661.573	45
661.695	120
661.817	59
661.939	108
662.061	57
662.184	66
662.306	45
662.428	75
662.55	54
662.672	73
662.794	42
662.916	62
663.038	35
663.161	88
663.283	57
663.405	69
663.527	21
663.649	62
663.771	32
663.893	61
664.015	39
664.138	43
664.26	36
664.382	31
664.504	-1
664.626	35
664.748	13
664.87	43
664.992	27
665.115	44
665.237	14
665.359	27
665.481	25
665.603	42
665.725	13
665.847	28
665.97	22
666.092	60
666.214	33
666.336	32
666.458	36
666.58	54
666.702	1
666.825	39
666.947	9
667.069	48
667.191	21
667.313	45
667.435	14
667.557	25
667.68	1
667.802	12
667.924	19
668.046	32
668.168	25
668.29	47
668.412	27
668.535	24
668.657	30
668.779	13
668.901	12
669.023	35
669.145	8
669.267	33
669.39	22
669.512	41
669.634	19
669.756	14
669.878	21
670	30
670.123	6
670.245	19
670.367	28
670.489	29
670.611	2
670.733	5
670.856	7
670.978	31
671.1	28
671.222	33
671.344	16
671.466	22
671.589	3
671.711	0
671.833	-5
671.955	10
672.077	11
672.199	30
672.322	35
672.444	9
672.566	19
672.688	19
672.81	7
672.932	30
673.055	5
673.177	7
673.299	21
673.421	18
673.543	10
673.665	39
673.788	16
673.91	12
674.032	-8
674.154	7
674.276	21
674.399	29
674.521	27
674.643	19
674.765	8
674.887	11
675.009	29
675.132	9
675.254	3
675.376	-5
675.498	11
675.62	39
675.743	18
675.865	28
675.987	0
676.109	14
676.231	20
676.354	32
676.476	6
676.598	21
676.72	17
676.842	19
676.965	-13
677.087	4
677.209	26
677.331	33
677.453	-7
677.576	14
677.698	10
677.82	15
677.942	2
678.064	12
678.187	5
678.309	21
678.431	12
678.553	25
678.675	34
678.798	36
678.92	1
679.042	6
679.164	4
679.286	-1
679.409	7
679.531	-5
679.653	-9
679.775	17
679.898	6
680.02	13
680.142	-5
680.264	25
680.386	-21
680.509	8
680.631	20
680.753	26
680.875	1
680.998	11
681.12	11
681.242	16
681.364	-16
681.486	19
681.609	1
681.731	2
681.853	0
681.975	-7
682.098	13
682.22	28
682.342	0
682.464	14
682.587	7
682.709	13
682.831	-11
682.953	4
683.076	0
683.198	12
683.32	-10
683.442	8
683.565	11
683.687	12
683.809	2
683.931	6
684.054	13
684.176	8
684.298	26
684.42	13
684.543	9
684.665	35
684.787	5
684.909	7
685.032	29
685.154	8
685.276	6
685.398	7
685.521	-1
685.643	15
685.765	14
685.887	16
686.01	18
686.132	17
686.254	0
686.377	10
686.499	3
686.621	10
686.743	11
686.866	20
686.988	16
687.11	39
687.232	11
687.355	-11
687.477	15
687.599	6
687.722	13
687.844	10
687.966	7
688.088	19
688.211	27
688.333	43
688.455	8
688.578	20
688.7	-5
688.822	2
688.944	3
689.067	48
689.189	-2
689.311	1
689.434	5
689.556	17
689.678	12
689.801	-8
689.923	12
690.045	26
690.167	17
690.29	41
690.412	3
690.534	30
690.657	0
690.779	4
690.901	31
691.024	13
691.146	7
691.268	-1
691.391	8
691.513	28
691.635	27
691.758	15
691.88	23
692.002	7
692.125	15
692.247	1
692.369	3
692.492	13
692.614	0
692.736	8
692.859	4
692.981	1
693.103	15
693.226	12
693.348	27
693.47	26
693.593	15
693.715	-12
693.837	-8
693.96	-9
694.082	-3
694.204	8
694.327	0
694.449	-2
694.571	15
694.694	8
694.816	19
694.938	0
695.061	3
695.183	-5
695.305	-9
695.428	12
695.55	12
695.672	-4
695.795	18
695.917	27
696.04	9
696.162	12
696.284	0
696.407	27
696.529	17
696.651	34
696.774	-4
696.896	13
697.019	16
697.141	34
697.263	18
697.386	4
697.508	12
697.63	21
697.753	13
697.875	8
697.998	1
698.12	17
698.242	21
698.365	15
698.487	13
698.61	22
698.732	11
698.854	1
698.977	-2
699.099	3
699.221	8
699.344	0
699.466	14
699.589	12
699.711	2
699.834	10
699.956	5
700.078	15
700.201	4
700.323	21
700.446	1
700.568	-5
700.69	9
700.813	24
700.935	2
701.058	3
701.18	6
701.302	-10
701.425	-7
701.547	5
701.67	3
701.792	-1
701.915	5
702.037	2
702.159	-5
702.282	15
702.404	-7
702.527	17
702.649	18
702.772	7
702.894	29
703.017	7
703.139	24
703.261	5
703.384	-7
703.506	-16
703.629	17
703.751	13
703.874	18
703.996	-1
704.119	-4
704.241	6
704.364	-6
704.486	6
704.608	6
704.731	15
704.853	9
704.976	2
705.098	12
705.221	0
705.343	-3
705.466	12
705.588	16
705.711	13
705.833	13
705.956	-8
706.078	30
706.201	-5
706.323	-9
706.446	13
