Data from LowRes_H2_15_26_11_07_2024_HR4C61881__41__15-28-17-737.txt Node

Date: Thu Nov 07 15:28:17 EST 2024
User: crc00042
Spectrometer: HR4C6188
Trigger mode: 4
Integration Time (sec): 1.000000E-1
Scans to average: 1
Electric dark correction enabled: true
Nonlinearity correction enabled: false
Boxcar width: 0
XAxis mode: Wavelengths
Number of Pixels in Spectrum: 3648
>>>>>Begin Spectral Data<<<<<
245.66	-109
245.797	-109
245.934	-109
246.071	-90
246.208	19
246.344	-5
246.481	-5
246.618	-14
246.755	13
246.892	-3
247.029	-7
247.165	-11
247.302	22
247.439	-16
247.576	16
247.713	-5
247.849	18
247.986	-3
248.123	6
248.26	-11
248.396	23
248.533	6
248.67	-3
248.806	10
248.943	-7
249.08	-8
249.216	22
249.353	-5
249.49	1
249.626	-5
249.763	1
249.9	-2
250.036	8
250.173	12
250.309	9
250.446	13
250.582	-4
250.719	-15
250.856	-13
250.992	6
251.129	2
251.265	-10
251.402	-8
251.538	4
251.675	3
251.811	15
251.948	26
252.084	19
252.221	-2
252.357	-15
252.493	28
252.63	0
252.766	2
252.903	-21
253.039	-3
253.175	9
253.312	10
253.448	-2
253.585	-18
253.721	7
253.857	0
253.994	6
254.13	-2
254.266	20
254.403	10
254.539	3
254.675	25
254.811	9
254.948	-2
255.084	-18
255.22	-7
255.356	-4
255.493	3
255.629	-5
255.765	12
255.901	-5
256.037	11
256.174	7
256.31	-4
256.446	-16
256.582	10
256.718	-2
256.854	22
256.991	2
257.127	46
257.263	12
257.399	20
257.535	-11
257.671	0
257.807	-9
257.943	-18
258.079	-13
258.215	-12
258.351	17
258.487	4
258.623	20
258.759	2
258.895	7
259.031	-7
259.167	5
259.303	10
259.439	-11
259.575	-20
259.711	3
259.847	-15
259.983	5
260.119	-6
260.255	-11
260.391	0
260.527	6
260.663	10
260.799	10
260.934	-2
261.07	-8
261.206	-15
261.342	-15
261.478	9
261.614	2
261.749	21
261.885	-9
262.021	-4
262.157	19
262.293	15
262.428	9
262.564	7
262.7	10
262.836	-5
262.971	4
263.107	-4
263.243	5
263.378	4
263.514	-22
263.65	8
263.785	-4
263.921	9
264.057	-4
264.192	2
264.328	3
264.464	-12
264.599	7
264.735	38
264.871	-15
265.006	3
265.142	4
265.277	-2
265.413	23
265.548	9
265.684	29
265.819	2
265.955	-31
266.091	-14
266.226	-12
266.362	9
266.497	13
266.633	14
266.768	18
266.903	5
267.039	5
267.174	22
267.31	-5
267.445	-2
267.581	0
267.716	17
267.851	0
267.987	3
268.122	26
268.258	-3
268.393	8
268.528	6
268.664	-2
268.799	-12
268.934	17
269.07	8
269.205	-1
269.34	8
269.476	-1
269.611	-18
269.746	18
269.881	-2
270.017	8
270.152	2
270.287	11
270.422	17
270.558	13
270.693	4
270.828	-2
270.963	-13
271.098	-6
271.234	-2
271.369	4
271.504	5
271.639	-16
271.774	-10
271.909	3
272.045	-8
272.18	-7
272.315	-7
272.45	15
272.585	0
272.72	3
272.855	3
272.99	19
273.125	10
273.26	-7
273.395	-11
273.53	6
273.665	17
273.8	11
273.935	-6
274.07	-3
274.205	7
274.34	10
274.475	16
274.61	18
274.745	11
274.88	28
275.015	-9
275.15	15
275.285	-1
275.42	2
275.555	17
275.69	-1
275.825	16
275.959	11
276.094	-2
276.229	-1
276.364	-12
276.499	-7
276.634	-5
276.768	-24
276.903	4
277.038	26
277.173	10
277.308	8
277.442	-12
277.577	6
277.712	2
277.847	-3
277.981	-3
278.116	-19
278.251	14
278.386	2
278.52	13
278.655	-10
278.79	20
278.924	3
279.059	-1
279.194	-1
279.328	45
279.463	9
279.598	22
279.732	14
279.867	20
280.001	10
280.136	4
280.271	2
280.405	16
280.54	2
280.674	-1
280.809	6
280.943	9
281.078	-11
281.213	19
281.347	-5
281.482	8
281.616	3
281.751	18
281.885	-4
282.02	4
282.154	16
282.288	-3
282.423	-9
282.557	-11
282.692	9
282.826	7
282.961	20
283.095	3
283.229	9
283.364	-12
283.498	-1
283.633	-7
283.767	-5
283.901	-6
284.036	-11
284.17	-14
284.304	6
284.439	7
284.573	4
284.707	21
284.842	6
284.976	-9
285.11	-21
285.244	3
285.379	36
285.513	-2
285.647	12
285.781	-13
285.916	16
286.05	9
286.184	13
286.318	19
286.453	-5
286.587	-8
286.721	-17
286.855	5
286.989	24
287.123	-1
287.258	-19
287.392	-11
287.526	19
287.66	-3
287.794	4
287.928	4
288.062	10
288.196	4
288.33	5
288.464	11
288.598	24
288.733	5
288.867	28
289.001	2
289.135	-13
289.269	-9
289.403	-3
289.537	12
289.671	20
289.805	14
289.939	8
290.073	0
290.207	10
290.34	-18
290.474	6
290.608	0
290.742	1
290.876	-3
291.01	-4
291.144	24
291.278	7
291.412	21
291.546	-16
291.679	3
291.813	6
291.947	24
292.081	-6
292.215	15
292.349	21
292.482	16
292.616	-4
292.75	0
292.884	20
293.018	4
293.151	-17
293.285	-2
293.419	-10
293.553	-22
293.686	-33
293.82	-9
293.954	12
294.088	6
294.221	-5
294.355	-9
294.489	-6
294.622	1
294.756	13
294.89	11
295.023	4
295.157	20
295.291	2
295.424	23
295.558	11
295.691	4
295.825	-13
295.959	2
296.092	-16
296.226	1
296.359	-2
296.493	10
296.627	-10
296.76	-9
296.894	6
297.027	10
297.161	-2
297.294	-13
297.428	-3
297.561	24
297.695	-10
297.828	-12
297.962	-7
298.095	-8
298.229	-1
298.362	-1
298.495	-9
298.629	-8
298.762	7
298.896	9
299.029	4
299.162	13
299.296	11
299.429	-20
299.563	10
299.696	11
299.829	0
299.963	2
300.096	14
300.229	14
300.363	7
300.496	18
300.629	-13
300.763	-6
300.896	6
301.029	3
301.162	6
301.296	6
301.429	-2
301.562	-26
301.695	3
301.829	18
301.962	22
302.095	-9
302.228	-9
302.362	10
302.495	2
302.628	16
302.761	-5
302.894	11
303.027	13
303.161	-2
303.294	-10
303.427	21
303.56	4
303.693	-2
303.826	-7
303.959	0
304.092	11
304.225	5
304.359	-12
304.492	6
304.625	-3
304.758	17
304.891	-16
305.024	13
305.157	-11
305.29	2
305.423	-3
305.556	20
305.689	17
305.822	4
305.955	10
306.088	-2
306.221	17
306.354	-2
306.487	-2
306.62	-5
306.752	-15
306.885	-5
307.018	-13
307.151	10
307.284	9
307.417	-10
307.55	16
307.683	20
307.816	19
307.948	15
308.081	25
308.214	15
308.347	11
308.48	5
308.613	-9
308.745	10
308.878	3
309.011	-6
309.144	6
309.277	0
309.409	22
309.542	8
309.675	17
309.808	-4
309.94	32
310.073	-11
310.206	-3
310.339	10
310.471	-12
310.604	14
310.737	-4
310.869	0
311.002	17
311.135	3
311.267	-11
311.4	14
311.533	23
311.665	-3
311.798	-6
311.93	18
312.063	28
312.196	-1
312.328	6
312.461	4
312.593	16
312.726	21
312.859	-12
312.991	3
313.124	-22
313.256	12
313.389	1
313.521	6
313.654	12
313.786	-12
313.919	1
314.051	11
314.184	14
314.316	-5
314.449	-23
314.581	1
314.714	12
314.846	2
314.978	-13
315.111	10
315.243	-15
315.376	26
315.508	4
315.641	12
315.773	13
315.905	11
316.038	-4
316.17	11
316.302	12
316.435	31
316.567	1
316.699	41
316.832	-6
316.964	1
317.096	-18
317.229	-10
317.361	-16
317.493	2
317.625	-17
317.758	25
317.89	15
318.022	-5
318.155	-18
318.287	6
318.419	20
318.551	12
318.683	6
318.816	-12
318.948	-11
319.08	-3
319.212	9
319.344	12
319.477	5
319.609	7
319.741	-1
319.873	9
320.005	15
320.137	4
320.269	1
320.401	-2
320.534	-11
320.666	-7
320.798	-31
320.93	-17
321.062	-21
321.194	-6
321.326	-7
321.458	16
321.59	-5
321.722	3
321.854	9
321.986	10
322.118	3
322.25	-10
322.382	10
322.514	-12
322.646	-2
322.778	14
322.91	-7
323.042	19
323.174	-1
323.306	1
323.438	-18
323.57	13
323.702	15
323.834	12
323.966	-2
324.097	3
324.229	3
324.361	-1
324.493	0
324.625	-12
324.757	2
324.889	-14
325.021	7
325.152	19
325.284	9
325.416	-13
325.548	11
325.68	-8
325.811	26
325.943	8
326.075	11
326.207	-1
326.339	-2
326.47	-11
326.602	4
326.734	22
326.866	25
326.997	-26
327.129	-16
327.261	-6
327.392	-21
327.524	0
327.656	-3
327.787	12
327.919	0
328.051	15
328.182	41
328.314	24
328.446	-2
328.577	20
328.709	14
328.841	-4
328.972	-17
329.104	-20
329.235	5
329.367	-1
329.499	21
329.63	-7
329.762	-5
329.893	19
330.025	2
330.156	-5
330.288	17
330.419	22
330.551	13
330.683	9
330.814	1
330.946	25
331.077	-5
331.208	5
331.34	-5
331.471	-20
331.603	-4
331.734	-17
331.866	2
331.997	19
332.129	2
332.26	4
332.392	17
332.523	7
332.654	-28
332.786	0
332.917	-8
333.048	19
333.18	14
333.311	-11
333.443	-2
333.574	-1
333.705	19
333.837	-9
333.968	-13
334.099	2
334.231	9
334.362	1
334.493	9
334.624	11
334.756	19
334.887	7
335.018	6
335.15	22
335.281	-7
335.412	22
335.543	20
335.675	-2
335.806	11
335.937	-4
336.068	9
336.199	23
336.331	1
336.462	-4
336.593	25
336.724	-11
336.855	3
336.986	10
337.118	-3
337.249	7
337.38	-4
337.511	-5
337.642	3
337.773	11
337.904	5
338.035	-11
338.166	-10
338.298	-2
338.429	-14
338.56	19
338.691	-2
338.822	13
338.953	15
339.084	22
339.215	16
339.346	13
339.477	-4
339.608	4
339.739	-22
339.87	5
340.001	-7
340.132	3
340.263	-3
340.394	13
340.525	-4
340.656	-1
340.787	-23
340.918	15
341.049	-6
341.179	-1
341.31	18
341.441	1
341.572	14
341.703	13
341.834	5
341.965	13
342.096	8
342.227	19
342.357	27
342.488	23
342.619	13
342.75	6
342.881	-13
343.012	13
343.142	-2
343.273	-1
343.404	-9
343.535	39
343.666	7
343.796	16
343.927	3
344.058	18
344.189	21
344.319	9
344.45	7
344.581	3
344.712	-13
344.842	-3
344.973	-10
345.104	-10
345.234	2
345.365	8
345.496	8
345.626	16
345.757	18
345.888	-18
346.018	19
346.149	14
346.28	25
346.41	-10
346.541	14
346.672	4
346.802	26
346.933	13
347.063	13
347.194	12
347.325	25
347.455	15
347.586	6
347.716	-18
347.847	12
347.977	5
348.108	24
348.238	5
348.369	6
348.499	13
348.63	4
348.76	7
348.891	-1
349.021	18
349.152	22
349.282	20
349.413	-2
349.543	14
349.674	-13
349.804	8
349.935	-5
350.065	-3
350.196	-5
350.326	18
350.456	12
350.587	25
350.717	7
350.848	14
350.978	11
351.108	13
351.239	24
351.369	-4
351.499	7
351.63	13
351.76	8
351.89	-2
352.021	-8
352.151	6
352.281	22
352.412	33
352.542	1
352.672	-4
352.803	1
352.933	14
353.063	12
353.193	15
353.324	-11
353.454	28
353.584	14
353.714	-8
353.845	7
353.975	5
354.105	-11
354.235	-7
354.365	-17
354.496	-5
354.626	-3
354.756	28
354.886	0
355.016	15
355.146	1
355.277	4
355.407	-4
355.537	11
355.667	-7
355.797	-5
355.927	-18
356.057	8
356.187	-12
356.318	-5
356.448	-19
356.578	-10
356.708	22
356.838	8
356.968	7
357.098	14
357.228	13
357.358	-3
357.488	-4
357.618	28
357.748	11
357.878	6
358.008	7
358.138	-10
358.268	-3
358.398	23
358.528	-14
358.658	2
358.788	-1
358.918	3
359.048	-12
359.178	7
359.308	11
359.438	29
359.568	20
359.698	23
359.827	4
359.957	17
360.087	26
360.217	-2
360.347	16
360.477	19
360.607	-5
360.737	23
360.866	-12
360.996	-21
361.126	-10
361.256	25
361.386	22
361.516	11
361.645	5
361.775	9
361.905	-11
362.035	-2
362.165	3
362.294	4
362.424	14
362.554	31
362.684	0
362.813	1
362.943	9
363.073	11
363.203	15
363.332	10
363.462	11
363.592	-17
363.721	-19
363.851	-5
363.981	13
364.111	11
364.24	-21
364.37	16
364.5	13
364.629	1
364.759	-13
364.888	-21
365.018	0
365.148	-3
365.277	12
365.407	19
365.537	30
365.666	29
365.796	8
365.925	18
366.055	5
366.184	1
366.314	23
366.444	19
366.573	1
366.703	6
366.832	0
366.962	8
367.091	22
367.221	16
367.35	14
367.48	39
367.609	9
367.739	-9
367.868	-13
367.998	4
368.127	19
368.257	12
368.386	34
368.516	24
368.645	-8
368.775	6
368.904	-5
369.033	-5
369.163	1
369.292	27
369.422	16
369.551	22
369.68	21
369.81	25
369.939	9
370.069	30
370.198	27
370.327	6
370.457	2
370.586	11
370.715	5
370.845	13
370.974	20
371.103	26
371.233	8
371.362	11
371.491	-6
371.621	14
371.75	15
371.879	-5
372.008	10
372.138	-4
372.267	37
372.396	0
372.525	-12
372.655	6
372.784	10
372.913	11
373.042	28
373.172	31
373.301	-11
373.43	-13
373.559	6
373.688	28
373.818	30
373.947	28
374.076	13
374.205	4
374.334	3
374.463	-7
374.593	13
374.722	1
374.851	28
374.98	-1
375.109	1
375.238	22
375.367	23
375.496	-4
375.625	9
375.755	29
375.884	15
376.013	26
376.142	-9
376.271	-9
376.4	13
376.529	16
376.658	12
376.787	14
376.916	-2
377.045	-14
377.174	7
377.303	-13
377.432	17
377.561	22
377.69	-8
377.819	22
377.948	-14
378.077	-6
378.206	-15
378.335	12
378.464	20
378.593	45
378.722	9
378.851	15
378.98	18
379.108	6
379.237	7
379.366	12
379.495	2
379.624	4
379.753	15
379.882	14
380.011	-7
380.14	-10
380.268	26
380.397	3
380.526	26
380.655	-2
380.784	-11
380.913	5
381.041	0
381.17	-7
381.299	15
381.428	10
381.557	-13
381.685	16
381.814	20
381.943	-14
382.072	-23
382.2	7
382.329	2
382.458	1
382.587	21
382.715	43
382.844	17
382.973	18
383.102	4
383.23	14
383.359	-7
383.488	21
383.616	7
383.745	-4
383.874	14
384.003	-1
384.131	4
384.26	-4
384.389	13
384.517	-13
384.646	-17
384.774	4
384.903	14
385.032	13
385.16	18
385.289	4
385.418	6
385.546	10
385.675	36
385.803	-3
385.932	18
386.06	-11
386.189	1
386.318	5
386.446	1
386.575	22
386.703	25
386.832	4
386.96	-20
387.089	3
387.217	19
387.346	-5
387.474	-7
387.603	4
387.731	8
387.86	24
387.988	21
388.117	24
388.245	-1
388.374	-2
388.502	3
388.631	4
388.759	17
388.888	14
389.016	7
389.144	16
389.273	-6
389.401	10
389.53	-19
389.658	6
389.786	-5
389.915	7
390.043	2
390.172	22
390.3	26
390.428	8
390.557	4
390.685	11
390.813	20
390.942	24
391.07	7
391.198	8
391.327	-6
391.455	1
391.583	17
391.712	7
391.84	21
391.968	-5
392.096	4
392.225	17
392.353	16
392.481	1
392.609	1
392.738	1
392.866	23
392.994	2
393.122	15
393.251	2
393.379	1
393.507	-14
393.635	-3
393.764	23
393.892	30
394.02	-2
394.148	7
394.276	0
394.404	21
394.533	10
394.661	9
394.789	30
394.917	26
395.045	0
395.173	-11
395.302	-4
395.43	9
395.558	30
395.686	0
395.814	5
395.942	-2
396.07	-7
396.198	-4
396.326	19
396.454	14
396.582	26
396.711	15
396.839	34
396.967	21
397.095	24
397.223	31
397.351	12
397.479	14
397.607	5
397.735	25
397.863	8
397.991	23
398.119	-1
398.247	4
398.375	-1
398.503	5
398.631	15
398.759	5
398.887	12
399.015	19
399.143	15
399.271	22
399.399	19
399.526	24
399.654	20
399.782	4
399.91	27
400.038	39
400.166	8
400.294	6
400.422	3
400.55	30
400.678	23
400.805	8
400.933	7
401.061	9
401.189	8
401.317	6
401.445	31
401.573	15
401.7	3
401.828	-6
401.956	2
402.084	13
402.212	30
402.34	12
402.467	1
402.595	5
402.723	-8
402.851	29
402.978	6
403.106	1
403.234	-2
403.362	36
403.489	21
403.617	22
403.745	13
403.873	-4
404	19
404.128	-15
404.256	4
404.384	18
404.511	8
404.639	-12
404.767	-12
404.894	-5
405.022	9
405.15	7
405.277	-3
405.405	-10
405.533	1
405.66	-2
405.788	-8
405.916	-9
406.043	-17
406.171	3
406.299	15
406.426	17
406.554	21
406.681	17
406.809	19
406.937	13
407.064	-7
407.192	23
407.319	16
407.447	2
407.574	19
407.702	-2
407.83	-14
407.957	1
408.085	-4
408.212	-10
408.34	1
408.467	13
408.595	-3
408.722	25
408.85	19
408.977	-1
409.105	7
409.232	15
409.36	6
409.487	17
409.615	11
409.742	25
409.87	32
409.997	35
410.125	37
410.252	52
410.379	54
410.507	35
410.634	2
410.762	9
410.889	17
411.017	1
411.144	15
411.271	9
411.399	8
411.526	16
411.653	13
411.781	36
411.908	8
412.036	1
412.163	27
412.29	9
412.418	23
412.545	19
412.672	9
412.8	32
412.927	24
413.054	13
413.182	11
413.309	11
413.436	6
413.564	3
413.691	12
413.818	28
413.945	-3
414.073	7
414.2	2
414.327	-4
414.454	7
414.582	5
414.709	-9
414.836	-13
414.963	2
415.091	21
415.218	-7
415.345	-11
415.472	10
415.6	14
415.727	31
415.854	14
415.981	-3
416.108	3
416.236	11
416.363	12
416.49	3
416.617	9
416.744	29
416.871	16
416.998	-4
417.126	7
417.253	17
417.38	10
417.507	2
417.634	12
417.761	21
417.888	16
418.015	14
418.143	11
418.27	8
418.397	2
418.524	12
418.651	7
418.778	1
418.905	25
419.032	18
419.159	10
419.286	23
419.413	3
419.54	31
419.667	10
419.794	7
419.921	4
420.048	-1
420.175	8
420.302	-17
420.429	16
420.556	14
420.683	-23
420.81	10
420.937	23
421.064	24
421.191	10
421.318	17
421.445	14
421.572	25
421.699	31
421.826	16
421.953	25
422.08	12
422.207	0
422.334	-6
422.461	16
422.588	-2
422.714	10
422.841	30
422.968	33
423.095	13
423.222	3
423.349	22
423.476	3
423.603	-9
423.729	-4
423.856	-5
423.983	18
424.11	-5
424.237	-4
424.364	8
424.491	5
424.617	-10
424.744	2
424.871	12
424.998	0
425.125	-11
425.251	11
425.378	-3
425.505	28
425.632	11
425.758	5
425.885	12
426.012	21
426.139	34
426.266	10
426.392	-4
426.519	29
426.646	28
426.772	32
426.899	4
427.026	6
427.153	10
427.279	16
427.406	20
427.533	-2
427.659	-3
427.786	9
427.913	24
428.039	16
428.166	-1
428.293	21
428.419	15
428.546	6
428.673	1
428.799	-2
428.926	9
429.053	31
429.179	20
429.306	6
429.433	23
429.559	28
429.686	12
429.812	-17
429.939	5
430.066	14
430.192	13
430.319	9
430.445	5
430.572	12
430.699	15
430.825	7
430.952	14
431.078	8
431.205	23
431.331	-7
431.458	4
431.584	16
431.711	13
431.837	12
431.964	-4
432.09	12
432.217	-6
432.343	11
432.47	25
432.596	13
432.723	15
432.849	5
432.976	20
433.102	17
433.229	-1
433.355	11
433.482	75
433.608	159
433.735	165
433.861	133
433.987	138
434.114	221
434.24	186
434.367	83
434.493	22
434.62	24
434.746	24
434.872	15
434.999	14
435.125	23
435.252	9
435.378	13
435.504	13
435.631	21
435.757	10
435.883	7
436.01	14
436.136	-2
436.262	29
436.389	5
436.515	26
436.641	5
436.768	23
436.894	7
437.02	23
437.147	36
437.273	11
437.399	16
437.526	21
437.652	-2
437.778	0
437.904	-10
438.031	13
438.157	18
438.283	25
438.409	11
438.536	-1
438.662	31
438.788	15
438.914	6
439.041	23
439.167	46
439.293	18
439.419	22
439.546	13
439.672	27
439.798	21
439.924	25
440.05	22
440.177	25
440.303	17
440.429	7
440.555	18
440.681	24
440.807	26
440.934	4
441.06	3
441.186	10
441.312	15
441.438	13
441.564	20
441.69	29
441.816	17
441.943	5
442.069	27
442.195	6
442.321	10
442.447	-4
442.573	13
442.699	4
442.825	8
442.951	16
443.077	18
443.203	19
443.33	13
443.456	-3
443.582	31
443.708	12
443.834	34
443.96	22
444.086	26
444.212	37
444.338	27
444.464	16
444.59	28
444.716	12
444.842	14
444.968	23
445.094	21
445.22	14
445.346	2
445.472	6
445.598	20
445.724	12
445.85	10
445.976	7
446.102	18
446.228	19
446.354	23
446.48	0
446.605	23
446.731	22
446.857	10
446.983	15
447.109	13
447.235	10
447.361	-1
447.487	17
447.613	-5
447.739	-1
447.865	11
447.99	7
448.116	6
448.242	23
448.368	20
448.494	19
448.62	21
448.746	-10
448.872	-3
448.997	-6
449.123	8
449.249	26
449.375	22
449.501	7
449.627	13
449.752	44
449.878	5
450.004	8
450.13	12
450.256	-2
450.381	10
450.507	20
450.633	11
450.759	18
450.884	13
451.01	1
451.136	13
451.262	24
451.388	12
451.513	1
451.639	12
451.765	20
451.89	26
452.016	-3
452.142	18
452.268	4
452.393	-1
452.519	-11
452.645	-3
452.771	-3
452.896	-3
453.022	-17
453.148	7
453.273	2
453.399	-2
453.525	-10
453.65	9
453.776	19
453.902	7
454.027	1
454.153	18
454.279	32
454.404	21
454.53	28
454.656	34
454.781	13
454.907	7
455.032	1
455.158	30
455.284	35
455.409	24
455.535	10
455.66	21
455.786	37
455.912	15
456.037	-1
456.163	0
456.288	22
456.414	-4
456.539	-18
456.665	18
456.791	19
456.916	9
457.042	6
457.167	14
457.293	23
457.418	9
457.544	-3
457.669	21
457.795	17
457.92	-1
458.046	16
458.171	-6
458.297	12
458.422	18
458.548	8
458.673	22
458.799	17
458.924	3
459.05	19
459.175	12
459.301	5
459.426	27
459.552	0
459.677	11
459.803	24
459.928	18
460.053	2
460.179	16
460.304	17
460.43	-5
460.555	-1
460.681	17
460.806	16
460.931	17
461.057	27
461.182	9
461.308	17
461.433	14
461.558	7
461.684	24
461.809	21
461.934	2
462.06	30
462.185	-1
462.311	5
462.436	10
462.561	29
462.687	25
462.812	28
462.937	-4
463.063	5
463.188	-6
463.313	27
463.439	14
463.564	9
463.689	17
463.814	11
463.94	10
464.065	33
464.19	25
464.316	11
464.441	-11
464.566	-1
464.692	-6
464.817	8
464.942	-3
465.067	25
465.193	-18
465.318	6
465.443	14
465.568	24
465.694	7
465.819	34
465.944	3
466.069	27
466.194	11
466.32	20
466.445	8
466.57	-12
466.695	8
466.82	15
466.946	11
467.071	11
467.196	3
467.321	26
467.446	1
467.572	15
467.697	5
467.822	12
467.947	25
468.072	27
468.197	-2
468.323	7
468.448	-4
468.573	-13
468.698	-1
468.823	21
468.948	25
469.073	23
469.198	21
469.324	25
469.449	4
469.574	5
469.699	29
469.824	14
469.949	1
470.074	21
470.199	42
470.324	33
470.449	34
470.574	9
470.7	11
470.825	25
470.95	44
471.075	22
471.2	22
471.325	21
471.45	15
471.575	-8
471.7	17
471.825	10
471.95	-7
472.075	8
472.2	-1
472.325	7
472.45	6
472.575	-14
472.7	-5
472.825	13
472.95	15
473.075	12
473.2	-1
473.325	18
473.45	3
473.575	2
473.7	18
473.825	18
473.95	17
474.075	37
474.2	11
474.325	-5
474.45	21
474.574	36
474.699	32
474.824	42
474.949	21
475.074	6
475.199	23
475.324	20
475.449	6
475.574	31
475.699	3
475.824	12
475.949	5
476.073	8
476.198	-4
476.323	-2
476.448	7
476.573	15
476.698	49
476.823	14
476.947	21
477.072	21
477.197	19
477.322	17
477.447	-4
477.572	29
477.697	14
477.821	-2
477.946	7
478.071	11
478.196	34
478.321	17
478.445	11
478.57	-6
478.695	8
478.82	24
478.945	24
479.069	15
479.194	0
479.319	6
479.444	22
479.569	19
479.693	13
479.818	26
479.943	20
480.068	23
480.192	21
480.317	12
480.442	6
480.567	21
480.691	5
480.816	11
480.941	11
481.066	28
481.19	16
481.315	16
481.44	-1
481.564	19
481.689	37
481.814	30
481.938	21
482.063	17
482.188	17
482.313	23
482.437	19
482.562	37
482.687	22
482.811	31
482.936	32
483.061	31
483.185	33
483.31	30
483.435	26
483.559	20
483.684	14
483.808	46
483.933	26
484.058	5
484.182	15
484.307	12
484.432	37
484.556	24
484.681	19
484.805	27
484.93	23
485.055	36
485.179	80
485.304	121
485.428	359
485.553	1256
485.678	1761
485.802	1595
485.927	1782
486.051	2633
486.176	1610
486.3	431
486.425	151
486.549	71
486.674	60
486.799	55
486.923	37
487.048	37
487.172	18
487.297	29
487.421	26
487.546	35
487.67	21
487.795	11
487.919	9
488.044	26
488.168	23
488.293	14
488.417	10
488.542	13
488.666	34
488.791	37
488.915	27
489.04	38
489.164	25
489.289	23
489.413	7
489.538	34
489.662	47
489.786	16
489.911	16
490.035	16
490.16	2
490.284	5
490.409	1
490.533	20
490.658	46
490.782	21
490.906	13
491.031	39
491.155	10
491.28	33
491.404	19
491.528	23
491.653	10
491.777	24
491.902	3
492.026	7
492.15	15
492.275	43
492.399	37
492.524	19
492.648	27
492.772	6
492.897	46
493.021	31
493.145	37
493.27	31
493.394	3
493.518	7
493.643	-17
493.767	44
493.891	-2
494.016	14
494.14	15
494.264	7
494.389	15
494.513	20
494.637	8
494.762	23
494.886	18
495.01	21
495.134	22
495.259	26
495.383	2
495.507	30
495.632	43
495.756	49
495.88	29
496.004	32
496.129	-4
496.253	13
496.377	30
496.501	52
496.626	7
496.75	17
496.874	13
496.998	16
497.123	35
497.247	14
497.371	8
497.495	27
497.62	19
497.744	19
497.868	16
497.992	2
498.116	34
498.241	8
498.365	17
498.489	-3
498.613	34
498.737	5
498.862	21
498.986	19
499.11	7
499.234	6
499.358	5
499.482	23
499.607	18
499.731	3
499.855	35
499.979	18
500.103	13
500.227	15
500.351	8
500.476	26
500.6	23
500.724	5
500.848	15
500.972	19
501.096	0
501.22	40
501.344	4
501.469	17
501.593	23
501.717	30
501.841	6
501.965	16
502.089	7
502.213	16
502.337	22
502.461	5
502.585	-3
502.709	15
502.834	2
502.958	30
503.082	15
503.206	16
503.33	30
503.454	24
503.578	25
503.702	33
503.826	16
503.95	31
504.074	29
504.198	13
504.322	1
504.446	-8
504.57	26
504.694	16
504.818	7
504.942	30
505.066	33
505.19	27
505.314	23
505.438	13
505.562	29
505.686	29
505.81	10
505.934	18
506.058	-5
506.182	22
506.306	21
506.43	1
506.554	6
506.678	3
506.802	25
506.926	30
507.05	15
507.174	34
507.298	26
507.422	25
507.546	30
507.67	28
507.794	7
507.918	10
508.042	21
508.165	5
508.289	8
508.413	10
508.537	6
508.661	21
508.785	-4
508.909	17
509.033	15
509.157	14
509.281	-1
509.405	17
509.528	40
509.652	37
509.776	18
509.9	25
510.024	17
510.148	23
510.272	23
510.396	22
510.519	7
510.643	18
510.767	16
510.891	21
511.015	24
511.139	21
511.263	32
511.386	16
511.51	20
511.634	19
511.758	11
511.882	26
512.006	28
512.129	28
512.253	42
512.377	29
512.501	16
512.625	1
512.748	-6
512.872	9
512.996	3
513.12	2
513.244	15
513.367	23
513.491	19
513.615	-4
513.739	12
513.862	23
513.986	11
514.11	13
514.234	5
514.358	15
514.481	45
514.605	1
514.729	8
514.853	11
514.976	14
515.1	5
515.224	19
515.348	3
515.471	14
515.595	23
515.719	19
515.842	49
515.966	13
516.09	23
516.214	32
516.337	39
516.461	19
516.585	39
516.708	32
516.832	24
516.956	15
517.08	22
517.203	-13
517.327	20
517.451	40
517.574	17
517.698	4
517.822	25
517.945	47
518.069	33
518.193	33
518.316	29
518.44	27
518.564	19
518.687	36
518.811	31
518.935	42
519.058	46
519.182	41
519.306	34
519.429	21
519.553	71
519.676	28
519.8	0
519.924	-1
520.047	22
520.171	8
520.294	22
520.418	28
520.542	4
520.665	40
520.789	28
520.913	2
521.036	-2
521.16	12
521.283	9
521.407	5
521.53	-5
521.654	-13
521.778	7
521.901	9
522.025	1
522.148	1
522.272	18
522.395	11
522.519	19
522.643	-4
522.766	27
522.89	25
523.013	22
523.137	2
523.26	-7
523.384	23
523.507	23
523.631	2
523.754	10
523.878	22
524.002	10
524.125	10
524.249	-2
524.372	11
524.496	20
524.619	13
524.743	14
524.866	4
524.99	15
525.113	5
525.237	42
525.36	23
525.484	23
525.607	-1
525.731	-16
525.854	26
525.978	34
526.101	16
526.224	5
526.348	9
526.471	2
526.595	15
526.718	5
526.842	3
526.965	16
527.089	12
527.212	12
527.336	12
527.459	24
527.582	17
527.706	21
527.829	27
527.953	31
528.076	-5
528.2	7
528.323	17
528.446	24
528.57	17
528.693	41
528.817	2
528.94	41
529.064	48
529.187	17
529.31	13
529.434	-3
529.557	14
529.68	5
529.804	4
529.927	20
530.051	18
530.174	28
530.297	17
530.421	21
530.544	22
530.668	26
530.791	10
530.914	46
531.038	7
531.161	10
531.284	27
531.408	27
531.531	10
531.654	3
531.778	36
531.901	3
532.024	15
532.148	17
532.271	21
532.394	23
532.518	25
532.641	18
532.764	53
532.888	30
533.011	1
533.134	0
533.258	11
533.381	3
533.504	-5
533.628	8
533.751	-12
533.874	5
533.997	5
534.121	4
534.244	1
534.367	8
534.491	14
534.614	6
534.737	21
534.86	17
534.984	-2
535.107	-11
535.23	2
535.354	25
535.477	-4
535.6	9
535.723	19
535.847	18
535.97	3
536.093	26
536.216	1
536.34	7
536.463	3
536.586	15
536.709	25
536.833	16
536.956	20
537.079	11
537.202	17
537.325	10
537.449	5
537.572	12
537.695	0
537.818	-2
537.941	5
538.065	15
538.188	8
538.311	17
538.434	27
538.558	19
538.681	27
538.804	11
538.927	13
539.05	16
539.173	25
539.297	13
539.42	5
539.543	11
539.666	34
539.789	22
539.913	11
540.036	-5
540.159	13
540.282	7
540.405	-16
540.528	-10
540.651	7
540.775	2
540.898	23
541.021	19
541.144	25
541.267	6
541.39	4
541.513	19
541.637	11
541.76	22
541.883	10
542.006	13
542.129	26
542.252	17
542.375	9
542.498	15
542.622	19
542.745	15
542.868	30
542.991	22
543.114	18
543.237	34
543.36	19
543.483	27
543.606	16
543.73	33
543.853	14
543.976	12
544.099	17
544.222	2
544.345	-9
544.468	12
544.591	7
544.714	18
544.837	28
544.96	9
545.083	6
545.206	3
545.329	26
545.453	9
545.576	17
545.699	-4
545.822	12
545.945	21
546.068	-6
546.191	23
546.314	3
546.437	20
546.56	30
546.683	23
546.806	29
546.929	-5
547.052	4
547.175	15
547.298	8
547.421	-6
547.544	-11
547.667	11
547.79	10
547.913	7
548.036	-8
548.159	15
548.282	-4
548.405	6
548.528	17
548.651	1
548.774	17
548.897	10
549.02	53
549.143	17
549.266	11
549.389	19
549.512	7
549.635	23
549.758	7
549.881	-11
550.004	13
550.127	5
550.25	4
550.373	-9
550.496	19
550.619	7
550.742	6
550.865	-2
550.988	13
551.111	22
551.234	26
551.356	-2
551.479	2
551.602	14
551.725	19
551.848	18
551.971	23
552.094	15
552.217	10
552.34	18
552.463	-7
552.586	22
552.709	10
552.832	17
552.955	22
553.077	21
553.2	11
553.323	-3
553.446	2
553.569	9
553.692	16
553.815	11
553.938	4
554.061	16
554.184	14
554.306	24
554.429	15
554.552	20
554.675	-2
554.798	15
554.921	20
555.044	23
555.167	11
555.29	11
555.412	-2
555.535	24
555.658	21
555.781	20
555.904	5
556.027	7
556.15	18
556.272	9
556.395	21
556.518	-6
556.641	-7
556.764	41
556.887	17
557.01	13
557.132	4
557.255	3
557.378	14
557.501	11
557.624	13
557.747	16
557.869	20
557.992	38
558.115	14
558.238	7
558.361	20
558.483	26
558.606	13
558.729	5
558.852	28
558.975	18
559.098	11
559.22	4
559.343	6
559.466	15
559.589	17
559.712	22
559.834	19
559.957	1
560.08	5
560.203	-3
560.325	31
560.448	27
560.571	9
560.694	3
560.817	21
560.939	5
561.062	-1
561.185	9
561.308	15
561.43	-4
561.553	5
561.676	14
561.799	16
561.921	-4
562.044	-3
562.167	-10
562.29	13
562.413	14
562.535	7
562.658	-6
562.781	19
562.903	1
563.026	10
563.149	15
563.272	9
563.394	14
563.517	14
563.64	1
563.763	-5
563.885	7
564.008	38
564.131	29
564.254	-8
564.376	30
564.499	12
564.622	-2
564.744	29
564.867	2
564.99	14
565.113	27
565.235	11
565.358	-10
565.481	1
565.603	3
565.726	11
565.849	28
565.971	32
566.094	1
566.217	29
566.34	17
566.462	11
566.585	21
566.708	41
566.83	-1
566.953	22
567.076	10
567.198	-1
567.321	-5
567.444	19
567.566	5
567.689	5
567.812	11
567.934	28
568.057	-7
568.18	12
568.302	10
568.425	13
568.548	19
568.67	21
568.793	23
568.916	12
569.038	5
569.161	20
569.283	25
569.406	14
569.529	20
569.651	2
569.774	6
569.897	7
570.019	26
570.142	20
570.265	-4
570.387	1
570.51	21
570.632	14
570.755	14
570.878	5
571	14
571.123	-2
571.246	-1
571.368	10
571.491	3
571.613	13
571.736	-15
571.859	-3
571.981	2
572.104	-5
572.226	9
572.349	2
572.472	23
572.594	15
572.717	-7
572.839	-3
572.962	10
573.085	24
573.207	16
573.33	19
573.452	28
573.575	22
573.697	19
573.82	5
573.943	2
574.065	15
574.188	8
574.31	32
574.433	16
574.555	19
574.678	-1
574.801	16
574.923	5
575.046	19
575.168	3
575.291	4
575.413	8
575.536	4
575.659	22
575.781	-8
575.904	4
576.026	17
576.149	5
576.271	23
576.394	11
576.516	13
576.639	5
576.761	-14
576.884	-1
577.007	9
577.129	14
577.252	8
577.374	43
577.497	18
577.619	7
577.742	15
577.864	34
577.987	20
578.109	17
578.232	-8
578.354	24
578.477	0
578.599	4
578.722	0
578.844	11
578.967	18
579.089	-6
579.212	8
579.334	34
579.457	14
579.579	20
579.702	6
579.824	20
579.947	4
580.069	6
580.192	-4
580.314	25
580.437	9
580.559	29
580.682	9
580.804	17
580.927	31
581.049	52
581.172	28
581.294	3
581.417	28
581.539	6
581.662	19
581.784	26
581.907	27
582.029	29
582.152	3
582.274	22
582.396	13
582.519	24
582.641	-4
582.764	13
582.886	18
583.009	3
583.131	-6
583.254	-6
583.376	15
583.499	23
583.621	30
583.743	5
583.866	4
583.988	13
584.111	23
584.233	20
584.356	19
584.478	14
584.601	-3
584.723	-7
584.845	27
584.968	-10
585.09	4
585.213	15
585.335	7
585.458	8
585.58	2
585.702	38
585.825	25
585.947	16
586.07	-7
586.192	9
586.315	19
586.437	7
586.559	2
586.682	3
586.804	18
586.927	7
587.049	21
587.171	35
587.294	23
587.416	29
587.539	23
587.661	6
587.783	-1
587.906	23
588.028	19
588.151	28
588.273	34
588.395	5
588.518	14
588.64	16
588.763	14
588.885	21
589.007	23
589.13	-2
589.252	-1
589.375	-8
589.497	6
589.619	13
589.742	18
589.864	26
589.986	23
590.109	-1
590.231	-2
590.354	24
590.476	-4
590.598	10
590.721	-9
590.843	12
590.965	4
591.088	8
591.21	7
591.332	12
591.455	-8
591.577	-4
591.7	11
591.822	-2
591.944	5
592.067	8
592.189	11
592.311	-1
592.434	9
592.556	10
592.678	17
592.801	18
592.923	18
593.045	6
593.168	34
593.29	31
593.412	14
593.535	2
593.657	5
593.779	7
593.902	30
594.024	30
594.146	16
594.269	1
594.391	6
594.513	19
594.636	4
594.758	14
594.88	30
595.003	37
595.125	8
595.247	14
595.37	28
595.492	6
595.614	15
595.737	3
595.859	20
595.981	3
596.104	6
596.226	1
596.348	19
596.471	23
596.593	28
596.715	-1
596.838	-7
596.96	6
597.082	29
597.204	25
597.327	11
597.449	14
597.571	10
597.694	24
597.816	21
597.938	17
598.061	-1
598.183	3
598.305	13
598.427	8
598.55	17
598.672	29
598.794	36
598.917	17
599.039	15
599.161	26
599.283	-6
599.406	17
599.528	15
599.65	40
599.773	28
599.895	25
600.017	3
600.139	-7
600.262	2
600.384	15
600.506	15
600.628	33
600.751	26
600.873	10
600.995	8
601.118	30
601.24	5
601.362	28
601.484	33
601.607	14
601.729	-13
601.851	7
601.973	21
602.096	13
602.218	15
602.34	21
602.462	14
602.585	5
602.707	-10
602.829	15
602.951	-2
603.074	-3
603.196	17
603.318	7
603.44	6
603.563	9
603.685	5
603.807	10
603.929	18
604.052	13
604.174	33
604.296	20
604.418	28
604.541	30
604.663	11
604.785	5
604.907	24
605.03	11
605.152	48
605.274	12
605.396	17
605.519	18
605.641	1
605.763	11
605.885	10
606.008	16
606.13	9
606.252	12
606.374	-1
606.496	2
606.619	15
606.741	-1
606.863	28
606.985	35
607.108	17
607.23	22
607.352	11
607.474	2
607.596	17
607.719	5
607.841	37
607.963	23
608.085	9
608.207	34
608.33	5
608.452	8
608.574	15
608.696	24
608.819	13
608.941	13
609.063	5
609.185	7
609.307	17
609.43	21
609.552	32
609.674	-4
609.796	27
609.918	18
610.041	7
610.163	23
610.285	-6
610.407	17
610.529	-10
610.652	18
610.774	10
610.896	17
611.018	13
611.14	12
611.263	5
611.385	11
611.507	11
611.629	11
611.751	17
611.873	25
611.996	7
612.118	13
612.24	8
612.362	27
612.484	36
612.607	22
612.729	25
612.851	29
612.973	11
613.095	18
613.218	-4
613.34	39
613.462	14
613.584	19
613.706	19
613.828	42
613.951	15
614.073	20
614.195	13
614.317	27
614.439	13
614.561	17
614.684	11
614.806	18
614.928	7
615.05	2
615.172	16
615.294	24
615.417	19
615.539	-6
615.661	12
615.783	42
615.905	33
616.027	69
616.15	116
616.272	71
616.394	51
616.516	45
616.638	15
616.76	20
616.883	7
617.005	14
617.127	6
617.249	1
617.371	18
617.493	1
617.615	27
617.738	11
617.86	23
617.982	21
618.104	11
618.226	0
618.348	-9
618.471	30
618.593	21
618.715	7
618.837	13
618.959	20
619.081	24
619.203	6
619.326	8
619.448	17
619.57	27
619.692	10
619.814	10
619.936	-1
620.058	19
620.181	20
620.303	6
620.425	25
620.547	10
620.669	23
620.791	23
620.913	14
621.036	6
621.158	14
621.28	18
621.402	-8
621.524	6
621.646	13
621.768	11
621.891	-11
622.013	9
622.135	4
622.257	16
622.379	15
622.501	-1
622.623	-4
622.745	-1
622.868	9
622.99	17
623.112	15
623.234	6
623.356	21
623.478	13
623.6	21
623.722	-7
623.845	12
623.967	2
624.089	34
624.211	1
624.333	30
624.455	11
624.577	2
624.699	11
624.822	10
624.944	15
625.066	13
625.188	-6
625.31	15
625.432	28
625.554	12
625.676	23
625.799	-7
625.921	-2
626.043	-1
626.165	19
626.287	3
626.409	3
626.531	-2
626.653	-3
626.775	29
626.898	19
627.02	9
627.142	32
627.264	23
627.386	5
627.508	17
627.63	6
627.752	32
627.874	15
627.997	8
628.119	27
628.241	18
628.363	25
628.485	23
628.607	3
628.729	2
628.851	10
628.973	6
629.096	-11
629.218	13
629.34	19
629.462	12
629.584	3
629.706	9
629.828	36
629.95	9
630.072	-12
630.195	3
630.317	18
630.439	8
630.561	5
630.683	13
630.805	3
630.927	26
631.049	8
631.171	6
631.293	24
631.416	8
631.538	10
631.66	18
631.782	6
631.904	34
632.026	5
632.148	27
632.27	15
632.392	22
632.514	17
632.637	2
632.759	8
632.881	-3
633.003	6
633.125	1
633.247	11
633.369	13
633.491	2
633.613	17
633.735	6
633.858	1
633.98	21
634.102	-13
634.224	-4
634.346	1
634.468	7
634.59	8
634.712	9
634.834	25
634.956	16
635.078	1
635.201	4
635.323	19
635.445	-5
635.567	-2
635.689	15
635.811	12
635.933	7
636.055	3
636.177	-8
636.299	43
636.421	25
636.544	7
636.666	7
636.788	11
636.91	8
637.032	17
637.154	23
637.276	56
637.398	30
637.52	32
637.642	9
637.764	6
637.887	8
638.009	-3
638.131	4
638.253	-4
638.375	33
638.497	21
638.619	-6
638.741	25
638.863	6
638.985	2
639.107	1
639.23	10
639.352	20
639.474	19
639.596	8
639.718	11
639.84	6
639.962	19
640.084	20
640.206	15
640.328	-3
640.45	21
640.573	9
640.695	10
640.817	19
640.939	22
641.061	1
641.183	5
641.305	-8
641.427	-4
641.549	5
641.671	17
641.793	9
641.915	11
642.038	2
642.16	17
642.282	18
642.404	21
642.526	8
642.648	12
642.77	5
642.892	3
643.014	10
643.136	22
643.258	-10
643.381	20
643.503	23
643.625	6
643.747	-10
643.869	-5
643.991	3
644.113	20
644.235	5
644.357	1
644.479	9
644.601	-7
644.723	5
644.846	13
644.968	34
645.09	14
645.212	-1
645.334	23
645.456	30
645.578	6
645.7	6
645.822	22
645.944	20
646.066	-3
646.188	2
646.311	33
646.433	17
646.555	45
646.677	44
646.799	35
646.921	20
647.043	25
647.165	14
647.287	13
647.409	15
647.531	4
647.654	9
647.776	14
647.898	14
648.02	7
648.142	1
648.264	8
648.386	3
648.508	4
648.63	5
648.752	5
648.874	-10
648.997	11
649.119	22
649.241	-3
649.363	25
649.485	22
649.607	-3
649.729	-8
649.851	12
649.973	14
650.095	9
650.217	-5
650.34	-4
650.462	9
650.584	18
650.706	30
650.828	11
650.95	-1
651.072	13
651.194	-13
651.316	5
651.438	13
651.56	10
651.683	4
651.805	10
651.927	-7
652.049	4
652.171	29
652.293	2
652.415	-3
652.537	-11
652.659	-6
652.781	15
652.903	16
653.026	38
653.148	21
653.27	29
653.392	18
653.514	17
653.636	17
653.758	19
653.88	5
654.002	12
654.124	3
654.247	-2
654.369	22
654.491	21
654.613	25
654.735	13
654.857	22
654.979	22
655.101	17
655.223	39
655.345	26
655.468	34
655.59	27
655.712	42
655.834	32
655.956	38
656.078	27
656.2	40
656.322	41
656.444	24
656.566	52
656.689	59
656.811	47
656.933	74
657.055	80
657.177	164
657.299	248
657.421	491
657.543	1851
657.665	12485
657.787	15156
657.91	15259
658.032	15664
658.154	4663
658.276	3544
658.398	1161
658.52	1035
658.642	491
658.764	591
658.886	279
659.009	440
659.131	212
659.253	299
659.375	139
659.497	254
659.619	135
659.741	201
659.863	115
659.985	153
660.108	71
660.23	133
660.352	74
660.474	131
660.596	79
660.718	142
660.84	60
660.962	121
661.084	55
661.207	94
661.329	47
661.451	108
661.573	49
661.695	112
661.817	60
661.939	96
662.061	71
662.184	65
662.306	24
662.428	57
662.55	55
662.672	69
662.794	43
662.916	71
663.038	40
663.161	92
663.283	29
663.405	80
663.527	33
663.649	70
663.771	33
663.893	52
664.015	34
664.138	35
664.26	26
664.382	51
664.504	11
664.626	25
664.748	15
664.87	30
664.992	31
665.115	72
665.237	31
665.359	39
665.481	16
665.603	51
665.725	12
665.847	23
665.97	10
666.092	49
666.214	21
666.336	34
666.458	21
666.58	40
666.702	11
666.825	50
666.947	22
667.069	51
667.191	20
667.313	36
667.435	18
667.557	33
667.68	5
667.802	22
667.924	19
668.046	44
668.168	35
668.29	55
668.412	15
668.535	36
668.657	13
668.779	22
668.901	26
669.023	50
669.145	12
669.267	47
669.39	23
669.512	27
669.634	16
669.756	25
669.878	15
670	34
670.123	7
670.245	46
670.367	17
670.489	38
670.611	1
670.733	22
670.856	11
670.978	44
671.1	12
671.222	38
671.344	36
671.466	27
671.589	8
671.711	23
671.833	14
671.955	11
672.077	-2
672.199	42
672.322	54
672.444	31
672.566	23
672.688	20
672.81	17
672.932	38
673.055	14
673.177	-2
673.299	11
673.421	25
673.543	23
673.665	40
673.788	8
673.91	3
674.032	6
674.154	36
674.276	19
674.399	-2
674.521	11
674.643	37
674.765	1
674.887	21
675.009	10
675.132	23
675.254	15
675.376	16
675.498	9
675.62	31
675.743	14
675.865	33
675.987	6
676.109	13
676.231	13
676.354	26
676.476	-2
676.598	43
676.72	13
676.842	29
676.965	-1
677.087	19
677.209	25
677.331	27
677.453	6
677.576	15
677.698	28
677.82	30
677.942	-7
678.064	8
678.187	5
678.309	11
678.431	11
678.553	16
678.675	20
678.798	33
678.92	10
679.042	15
679.164	-7
679.286	29
679.409	-5
679.531	19
679.653	15
679.775	10
679.898	3
680.02	5
680.142	-9
680.264	26
680.386	-15
680.509	34
680.631	8
680.753	16
680.875	5
680.998	25
681.12	21
681.242	26
681.364	10
681.486	7
681.609	-17
681.731	-7
681.853	-3
681.975	-1
682.098	-3
682.22	31
682.342	6
682.464	15
682.587	4
682.709	17
682.831	-17
682.953	9
683.076	21
683.198	36
683.32	14
683.442	33
683.565	36
683.687	15
683.809	2
683.931	-8
684.054	12
684.176	15
684.298	21
684.42	12
684.543	18
684.665	15
684.787	12
684.909	23
685.032	11
685.154	-2
685.276	22
685.398	4
685.521	-9
685.643	9
685.765	3
685.887	26
686.01	18
686.132	17
686.254	20
686.377	11
686.499	-3
686.621	15
686.743	24
686.866	27
686.988	42
687.11	25
687.232	15
687.355	-2
687.477	8
687.599	25
687.722	-3
687.844	17
687.966	22
688.088	20
688.211	37
688.333	21
688.455	32
688.578	19
688.7	8
688.822	22
688.944	-1
689.067	53
689.189	18
689.311	1
689.434	-19
689.556	17
689.678	19
689.801	-5
689.923	1
690.045	27
690.167	27
690.29	28
690.412	8
690.534	22
690.657	9
690.779	9
690.901	15
691.024	7
691.146	2
691.268	7
691.391	23
691.513	15
691.635	12
691.758	24
691.88	31
692.002	15
692.125	-9
692.247	5
692.369	21
692.492	-3
692.614	14
692.736	9
692.859	9
692.981	13
693.103	6
693.226	5
693.348	34
693.47	12
693.593	19
693.715	-7
693.837	-2
693.96	-12
694.082	1
694.204	5
694.327	-2
694.449	-6
694.571	22
694.694	27
694.816	8
694.938	4
695.061	10
695.183	21
695.305	9
695.428	18
695.55	3
695.672	-13
695.795	21
695.917	25
696.04	10
696.162	15
696.284	20
696.407	0
696.529	-6
696.651	21
696.774	7
696.896	11
697.019	5
697.141	21
697.263	8
697.386	7
697.508	-3
697.63	18
697.753	17
697.875	15
697.998	7
698.12	23
698.242	17
698.365	19
698.487	14
698.61	11
698.732	14
698.854	27
698.977	2
699.099	16
699.221	3
699.344	12
699.466	24
699.589	15
699.711	2
699.834	-3
699.956	2
700.078	7
700.201	13
700.323	36
700.446	9
700.568	16
700.69	20
700.813	21
700.935	20
701.058	3
701.18	10
701.302	7
701.425	8
701.547	9
701.67	-7
701.792	8
701.915	3
702.037	2
702.159	10
702.282	13
702.404	5
702.527	17
702.649	19
702.772	15
702.894	8
703.017	13
703.139	20
703.261	37
703.384	11
703.506	5
703.629	12
703.751	21
703.874	20
703.996	-3
704.119	-13
704.241	17
704.364	-5
704.486	15
704.608	13
704.731	0
704.853	25
704.976	6
705.098	17
705.221	10
705.343	-4
705.466	10
705.588	18
705.711	10
705.833	35
705.956	21
706.078	11
706.201	1
706.323	17
706.446	3
