Data from LowRes_H2_15_26_11_07_2024_HR4C61881__93__15-28-22-936.txt Node

Date: Thu Nov 07 15:28:22 EST 2024
User: crc00042
Spectrometer: HR4C6188
Trigger mode: 4
Integration Time (sec): 1.000000E-1
Scans to average: 1
Electric dark correction enabled: true
Nonlinearity correction enabled: false
Boxcar width: 0
XAxis mode: Wavelengths
Number of Pixels in Spectrum: 3648
>>>>>Begin Spectral Data<<<<<
245.66	-76
245.797	-76
245.934	-76
246.071	-73
246.208	3
246.344	-1
246.481	-8
246.618	1
246.755	7
246.892	-8
247.029	-6
247.165	-22
247.302	18
247.439	-1
247.576	7
247.713	-4
247.849	30
247.986	-13
248.123	3
248.26	-4
248.396	-2
248.533	-1
248.67	3
248.806	-3
248.943	0
249.08	5
249.216	14
249.353	-5
249.49	-14
249.626	15
249.763	1
249.9	3
250.036	0
250.173	13
250.309	4
250.446	23
250.582	7
250.719	7
250.856	7
250.992	-3
251.129	-12
251.265	-10
251.402	-16
251.538	-13
251.675	-19
251.811	10
251.948	27
252.084	23
252.221	8
252.357	-7
252.493	27
252.63	7
252.766	9
252.903	9
253.039	-1
253.175	-2
253.312	16
253.448	-11
253.585	-12
253.721	14
253.857	0
253.994	-7
254.13	12
254.266	16
254.403	3
254.539	4
254.675	28
254.811	24
254.948	-6
255.084	9
255.22	-4
255.356	-8
255.493	8
255.629	0
255.765	-4
255.901	18
256.037	8
256.174	-9
256.31	-27
256.446	-12
256.582	0
256.718	31
256.854	22
256.991	1
257.127	13
257.263	8
257.399	-5
257.535	-18
257.671	2
257.807	-8
257.943	-6
258.079	6
258.215	24
258.351	35
258.487	17
258.623	9
258.759	13
258.895	7
259.031	4
259.167	-4
259.303	31
259.439	12
259.575	23
259.711	3
259.847	3
259.983	4
260.119	-7
260.255	6
260.391	19
260.527	22
260.663	17
260.799	9
260.934	-12
261.07	1
261.206	-18
261.342	-10
261.478	31
261.614	-1
261.749	10
261.885	16
262.021	-10
262.157	0
262.293	1
262.428	-2
262.564	5
262.7	8
262.836	12
262.971	12
263.107	9
263.243	12
263.378	-2
263.514	-4
263.65	14
263.785	-9
263.921	0
264.057	9
264.192	10
264.328	15
264.464	-11
264.599	3
264.735	26
264.871	-3
265.006	-1
265.142	7
265.277	13
265.413	16
265.548	20
265.684	11
265.819	0
265.955	-17
266.091	-11
266.226	6
266.362	6
266.497	7
266.633	24
266.768	8
266.903	10
267.039	23
267.174	35
267.31	-4
267.445	-1
267.581	-4
267.716	6
267.851	11
267.987	16
268.122	26
268.258	4
268.393	-17
268.528	4
268.664	-4
268.799	-25
268.934	-6
269.07	-8
269.205	11
269.34	15
269.476	-1
269.611	-25
269.746	18
269.881	30
270.017	19
270.152	11
270.287	9
270.422	-12
270.558	-6
270.693	11
270.828	0
270.963	-3
271.098	-2
271.234	-6
271.369	11
271.504	9
271.639	-10
271.774	-8
271.909	9
272.045	-4
272.18	-4
272.315	-2
272.45	25
272.585	27
272.72	17
272.855	22
272.99	23
273.125	4
273.26	-10
273.395	-6
273.53	1
273.665	0
273.8	10
273.935	10
274.07	17
274.205	10
274.34	10
274.475	8
274.61	33
274.745	4
274.88	25
275.015	-5
275.15	28
275.285	15
275.42	17
275.555	20
275.69	17
275.825	-4
275.959	30
276.094	-15
276.229	6
276.364	-10
276.499	13
276.634	-1
276.768	4
276.903	3
277.038	25
277.173	20
277.308	9
277.442	-10
277.577	-13
277.712	5
277.847	6
277.981	11
278.116	-3
278.251	1
278.386	8
278.52	7
278.655	-5
278.79	-2
278.924	10
279.059	17
279.194	-15
279.328	38
279.463	9
279.598	21
279.732	4
279.867	5
280.001	9
280.136	4
280.271	21
280.405	18
280.54	12
280.674	12
280.809	4
280.943	6
281.078	-4
281.213	4
281.347	4
281.482	6
281.616	23
281.751	-3
281.885	2
282.02	2
282.154	16
282.288	-7
282.423	-15
282.557	-17
282.692	-1
282.826	-1
282.961	13
283.095	-11
283.229	-9
283.364	9
283.498	-3
283.633	0
283.767	4
283.901	6
284.036	28
284.17	3
284.304	-3
284.439	-10
284.573	-10
284.707	22
284.842	7
284.976	-4
285.11	3
285.244	-4
285.379	61
285.513	-17
285.647	5
285.781	6
285.916	23
286.05	-5
286.184	47
286.318	14
286.453	-4
286.587	8
286.721	-2
286.855	7
286.989	0
287.123	-16
287.258	-19
287.392	7
287.526	7
287.66	2
287.794	3
287.928	13
288.062	13
288.196	15
288.33	26
288.464	18
288.598	12
288.733	7
288.867	18
289.001	-5
289.135	11
289.269	-6
289.403	8
289.537	9
289.671	13
289.805	-5
289.939	9
290.073	10
290.207	26
290.34	0
290.474	22
290.608	6
290.742	4
290.876	12
291.01	2
291.144	17
291.278	6
291.412	-6
291.546	-6
291.679	-19
291.813	-5
291.947	8
292.081	1
292.215	6
292.349	15
292.482	22
292.616	-2
292.75	-5
292.884	4
293.018	14
293.151	-13
293.285	13
293.419	-14
293.553	-11
293.686	2
293.82	5
293.954	29
294.088	28
294.221	-4
294.355	-2
294.489	-2
294.622	-14
294.756	9
294.89	14
295.023	7
295.157	8
295.291	13
295.424	12
295.558	-1
295.691	11
295.825	14
295.959	3
296.092	5
296.226	-10
296.359	-1
296.493	9
296.627	-3
296.76	15
296.894	3
297.027	-2
297.161	16
297.294	-23
297.428	-4
297.561	40
297.695	-5
297.828	0
297.962	12
298.095	6
298.229	12
298.362	-8
298.495	-4
298.629	-12
298.762	0
298.896	-2
299.029	-17
299.162	-3
299.296	6
299.429	23
299.563	15
299.696	18
299.829	9
299.963	19
300.096	12
300.229	3
300.363	13
300.496	5
300.629	-5
300.763	6
300.896	-17
301.029	5
301.162	3
301.296	-7
301.429	3
301.562	-15
301.695	13
301.829	11
301.962	18
302.095	9
302.228	-5
302.362	18
302.495	12
302.628	5
302.761	7
302.894	9
303.027	26
303.161	4
303.294	-2
303.427	9
303.56	14
303.693	10
303.826	10
303.959	-16
304.092	-11
304.225	-7
304.359	15
304.492	7
304.625	-19
304.758	15
304.891	-12
305.024	3
305.157	-10
305.29	-2
305.423	3
305.556	16
305.689	10
305.822	-10
305.955	8
306.088	-11
306.221	10
306.354	-10
306.487	-16
306.62	-18
306.752	3
306.885	4
307.018	-2
307.151	-2
307.284	8
307.417	6
307.55	20
307.683	13
307.816	17
307.948	9
308.081	1
308.214	11
308.347	14
308.48	-10
308.613	3
308.745	5
308.878	-8
309.011	-8
309.144	0
309.277	3
309.409	18
309.542	10
309.675	16
309.808	5
309.94	6
310.073	-15
310.206	-13
310.339	22
310.471	-13
310.604	26
310.737	21
310.869	3
311.002	0
311.135	-2
311.267	-12
311.4	-17
311.533	31
311.665	-4
311.798	-13
311.93	-1
312.063	23
312.196	0
312.328	-20
312.461	2
312.593	8
312.726	3
312.859	7
312.991	17
313.124	-9
313.256	8
313.389	13
313.521	4
313.654	12
313.786	-10
313.919	-13
314.051	5
314.184	17
314.316	5
314.449	-7
314.581	7
314.714	6
314.846	-1
314.978	-8
315.111	5
315.243	8
315.376	-6
315.508	15
315.641	5
315.773	5
315.905	19
316.038	7
316.17	6
316.302	13
316.435	9
316.567	3
316.699	24
316.832	1
316.964	-24
317.096	6
317.229	4
317.361	-12
317.493	-19
317.625	-7
317.758	16
317.89	22
318.022	-5
318.155	13
318.287	11
318.419	-12
318.551	-9
318.683	20
318.816	-10
318.948	-7
319.08	-13
319.212	-1
319.344	3
319.477	13
319.609	8
319.741	13
319.873	-4
320.005	-7
320.137	7
320.269	21
320.401	4
320.534	-16
320.666	-9
320.798	-4
320.93	-12
321.062	-18
321.194	-14
321.326	-8
321.458	9
321.59	9
321.722	-2
321.854	8
321.986	3
322.118	10
322.25	-18
322.382	-6
322.514	0
322.646	-1
322.778	12
322.91	-7
323.042	-9
323.174	-12
323.306	-27
323.438	-22
323.57	1
323.702	-3
323.834	7
323.966	5
324.097	2
324.229	8
324.361	-9
324.493	6
324.625	-4
324.757	3
324.889	-1
325.021	6
325.152	11
325.284	19
325.416	-12
325.548	14
325.68	0
325.811	22
325.943	4
326.075	-4
326.207	1
326.339	16
326.47	13
326.602	17
326.734	17
326.866	14
326.997	-10
327.129	10
327.261	-5
327.392	-2
327.524	9
327.656	13
327.787	18
327.919	19
328.051	8
328.182	18
328.314	21
328.446	3
328.577	13
328.709	5
328.841	-16
328.972	-16
329.104	-21
329.235	-20
329.367	-2
329.499	13
329.63	14
329.762	15
329.893	11
330.025	-3
330.156	-16
330.288	5
330.419	2
330.551	5
330.683	12
330.814	13
330.946	3
331.077	-12
331.208	-12
331.34	-6
331.471	-19
331.603	2
331.734	-20
331.866	-5
331.997	11
332.129	4
332.26	-8
332.392	9
332.523	-1
332.654	-6
332.786	15
332.917	14
333.048	23
333.18	32
333.311	-8
333.443	10
333.574	-6
333.705	20
333.837	-12
333.968	18
334.099	2
334.231	17
334.362	-9
334.493	11
334.624	13
334.756	4
334.887	2
335.018	25
335.15	25
335.281	-3
335.412	30
335.543	21
335.675	6
335.806	5
335.937	-5
336.068	13
336.199	40
336.331	5
336.462	1
336.593	1
336.724	1
336.855	1
336.986	14
337.118	2
337.249	12
337.38	8
337.511	11
337.642	11
337.773	22
337.904	17
338.035	4
338.166	2
338.298	19
338.429	9
338.56	6
338.691	14
338.822	5
338.953	16
339.084	40
339.215	5
339.346	15
339.477	5
339.608	6
339.739	2
339.87	15
340.001	3
340.132	12
340.263	6
340.394	4
340.525	19
340.656	2
340.787	-10
340.918	33
341.049	10
341.179	1
341.31	0
341.441	13
341.572	14
341.703	16
341.834	-5
341.965	10
342.096	16
342.227	10
342.357	20
342.488	9
342.619	5
342.75	16
342.881	-10
343.012	8
343.142	32
343.273	4
343.404	17
343.535	37
343.666	17
343.796	18
343.927	9
344.058	-4
344.189	22
344.319	23
344.45	26
344.581	0
344.712	0
344.842	7
344.973	4
345.104	14
345.234	20
345.365	-33
345.496	-7
345.626	8
345.757	19
345.888	-4
346.018	10
346.149	4
346.28	15
346.41	-6
346.541	21
346.672	2
346.802	2
346.933	5
347.063	14
347.194	-9
347.325	1
347.455	35
347.586	36
347.716	-4
347.847	5
347.977	8
348.108	25
348.238	36
348.369	2
348.499	-2
348.63	-3
348.76	3
348.891	10
349.021	-1
349.152	29
349.282	2
349.413	-1
349.543	14
349.674	8
349.804	24
349.935	-8
350.065	0
350.196	-13
350.326	21
350.456	-4
350.587	31
350.717	4
350.848	19
350.978	10
351.108	-9
351.239	20
351.369	-1
351.499	17
351.63	14
351.76	1
351.89	3
352.021	17
352.151	4
352.281	12
352.412	17
352.542	8
352.672	5
352.803	10
352.933	10
353.063	26
353.193	-1
353.324	16
353.454	3
353.584	16
353.714	5
353.845	6
353.975	4
354.105	11
354.235	14
354.365	1
354.496	-6
354.626	27
354.756	23
354.886	13
355.016	30
355.146	11
355.277	3
355.407	16
355.537	17
355.667	14
355.797	13
355.927	11
356.057	15
356.187	-6
356.318	10
356.448	-4
356.578	12
356.708	33
356.838	11
356.968	0
357.098	15
357.228	5
357.358	12
357.488	-5
357.618	17
357.748	31
357.878	19
358.008	-9
358.138	4
358.268	11
358.398	20
358.528	-3
358.658	9
358.788	-2
358.918	-10
359.048	7
359.178	16
359.308	16
359.438	21
359.568	-1
359.698	9
359.827	14
359.957	9
360.087	15
360.217	1
360.347	12
360.477	12
360.607	5
360.737	25
360.866	0
360.996	9
361.126	-7
361.256	13
361.386	26
361.516	19
361.645	-8
361.775	10
361.905	-11
362.035	-1
362.165	18
362.294	18
362.424	35
362.554	17
362.684	-9
362.813	-2
362.943	17
363.073	-1
363.203	5
363.332	8
363.462	-18
363.592	-1
363.721	5
363.851	4
363.981	21
364.111	-7
364.24	-6
364.37	25
364.5	24
364.629	13
364.759	-10
364.888	-7
365.018	15
365.148	1
365.277	0
365.407	16
365.537	12
365.666	3
365.796	3
365.925	7
366.055	14
366.184	4
366.314	7
366.444	26
366.573	2
366.703	-7
366.832	12
366.962	5
367.091	27
367.221	2
367.35	7
367.48	52
367.609	24
367.739	21
367.868	11
367.998	21
368.127	29
368.257	26
368.386	11
368.516	12
368.645	4
368.775	29
368.904	7
369.033	1
369.163	-9
369.292	5
369.422	12
369.551	12
369.68	17
369.81	23
369.939	7
370.069	21
370.198	19
370.327	-2
370.457	27
370.586	25
370.715	13
370.845	-5
370.974	26
371.103	23
371.233	9
371.362	-12
371.491	7
371.621	17
371.75	30
371.879	-10
372.008	1
372.138	-1
372.267	18
372.396	2
372.525	13
372.655	-8
372.784	0
372.913	-1
373.042	21
373.172	13
373.301	-11
373.43	-5
373.559	10
373.688	11
373.818	23
373.947	18
374.076	12
374.205	19
374.334	5
374.463	5
374.593	16
374.722	5
374.851	10
374.98	4
375.109	18
375.238	15
375.367	30
375.496	-4
375.625	-4
375.755	21
375.884	14
376.013	12
376.142	9
376.271	-1
376.4	2
376.529	2
376.658	10
376.787	10
376.916	18
377.045	7
377.174	11
377.303	13
377.432	36
377.561	24
377.69	22
377.819	34
377.948	5
378.077	1
378.206	-1
378.335	12
378.464	6
378.593	19
378.722	-10
378.851	1
378.98	24
379.108	-20
379.237	0
379.366	18
379.495	32
379.624	18
379.753	14
379.882	11
380.011	7
380.14	6
380.268	7
380.397	-1
380.526	23
380.655	10
380.784	-11
380.913	3
381.041	13
381.17	-19
381.299	2
381.428	4
381.557	7
381.685	5
381.814	9
381.943	11
382.072	-9
382.2	-19
382.329	9
382.458	16
382.587	35
382.715	36
382.844	22
382.973	12
383.102	18
383.23	7
383.359	-30
383.488	4
383.616	-17
383.745	-14
383.874	0
384.003	7
384.131	-13
384.26	8
384.389	12
384.517	-7
384.646	-8
384.774	13
384.903	28
385.032	34
385.16	8
385.289	-2
385.418	11
385.546	11
385.675	14
385.803	11
385.932	16
386.06	4
386.189	25
386.318	9
386.446	22
386.575	17
386.703	20
386.832	12
386.96	-10
387.089	28
387.217	6
387.346	-1
387.474	5
387.603	7
387.731	16
387.86	30
387.988	4
388.117	4
388.245	8
388.374	9
388.502	27
388.631	-2
388.759	5
388.888	9
389.016	3
389.144	-6
389.273	-9
389.401	3
389.53	-13
389.658	9
389.786	-9
389.915	0
390.043	4
390.172	26
390.3	28
390.428	26
390.557	4
390.685	-1
390.813	24
390.942	22
391.07	22
391.198	7
391.327	-4
391.455	4
391.583	34
391.712	23
391.84	11
391.968	6
392.096	1
392.225	-6
392.353	11
392.481	-2
392.609	19
392.738	30
392.866	17
392.994	13
393.122	24
393.251	2
393.379	15
393.507	2
393.635	8
393.764	16
393.892	20
394.02	-22
394.148	-10
394.276	7
394.404	18
394.533	8
394.661	-4
394.789	21
394.917	46
395.045	-13
395.173	-20
395.302	8
395.43	5
395.558	7
395.686	18
395.814	27
395.942	1
396.07	7
396.198	19
396.326	28
396.454	17
396.582	8
396.711	-2
396.839	14
396.967	15
397.095	4
397.223	24
397.351	18
397.479	34
397.607	-2
397.735	4
397.863	18
397.991	30
398.119	-11
398.247	8
398.375	-9
398.503	-10
398.631	11
398.759	28
398.887	-8
399.015	13
399.143	-1
399.271	10
399.399	25
399.526	21
399.654	28
399.782	-3
399.91	22
400.038	25
400.166	7
400.294	20
400.422	-5
400.55	-2
400.678	7
400.805	5
400.933	19
401.061	17
401.189	3
401.317	21
401.445	30
401.573	23
401.7	-1
401.828	-2
401.956	-2
402.084	27
402.212	17
402.34	24
402.467	23
402.595	19
402.723	11
402.851	28
402.978	30
403.106	25
403.234	3
403.362	16
403.489	27
403.617	17
403.745	12
403.873	1
404	22
404.128	34
404.256	26
404.384	22
404.511	0
404.639	7
404.767	-2
404.894	29
405.022	10
405.15	1
405.277	17
405.405	7
405.533	12
405.66	-6
405.788	-18
405.916	-10
406.043	-18
406.171	6
406.299	19
406.426	0
406.554	20
406.681	26
406.809	11
406.937	-12
407.064	-4
407.192	39
407.319	17
407.447	21
407.574	29
407.702	12
407.83	-3
407.957	7
408.085	7
408.212	5
408.34	7
408.467	-2
408.595	11
408.722	29
408.85	43
408.977	22
409.105	15
409.232	32
409.36	29
409.487	18
409.615	26
409.742	34
409.87	38
409.997	50
410.125	35
410.252	73
410.379	62
410.507	35
410.634	20
410.762	10
410.889	37
411.017	4
411.144	32
411.271	6
411.399	10
411.526	9
411.653	31
411.781	13
411.908	13
412.036	-2
412.163	41
412.29	36
412.418	26
412.545	12
412.672	5
412.8	22
412.927	18
413.054	41
413.182	32
413.309	26
413.436	7
413.564	2
413.691	-6
413.818	15
413.945	-13
414.073	3
414.2	-9
414.327	0
414.454	28
414.582	11
414.709	-7
414.836	9
414.963	3
415.091	16
415.218	10
415.345	21
415.472	11
415.6	7
415.727	13
415.854	20
415.981	4
416.108	2
416.236	-4
416.363	22
416.49	-4
416.617	-2
416.744	14
416.871	29
416.998	-8
417.126	0
417.253	1
417.38	0
417.507	5
417.634	-4
417.761	17
417.888	22
418.015	37
418.143	7
418.27	27
418.397	10
418.524	22
418.651	7
418.778	22
418.905	19
419.032	16
419.159	4
419.286	41
419.413	37
419.54	32
419.667	-6
419.794	5
419.921	12
420.048	10
420.175	13
420.302	-1
420.429	8
420.556	5
420.683	-9
420.81	-1
420.937	17
421.064	10
421.191	4
421.318	12
421.445	25
421.572	3
421.699	8
421.826	8
421.953	20
422.08	12
422.207	0
422.334	-11
422.461	21
422.588	5
422.714	17
422.841	21
422.968	25
423.095	13
423.222	1
423.349	10
423.476	12
423.603	6
423.729	-1
423.856	6
423.983	13
424.11	3
424.237	10
424.364	1
424.491	8
424.617	9
424.744	7
424.871	21
424.998	1
425.125	23
425.251	19
425.378	3
425.505	39
425.632	5
425.758	0
425.885	10
426.012	6
426.139	31
426.266	12
426.392	12
426.519	29
426.646	6
426.772	37
426.899	8
427.026	16
427.153	7
427.279	29
427.406	8
427.533	10
427.659	2
427.786	19
427.913	22
428.039	16
428.166	11
428.293	9
428.419	19
428.546	11
428.673	-1
428.799	4
428.926	5
429.053	29
429.179	24
429.306	-2
429.433	22
429.559	22
429.686	10
429.812	8
429.939	-7
430.066	18
430.192	6
430.319	7
430.445	-1
430.572	17
430.699	-12
430.825	-9
430.952	6
431.078	-3
431.205	14
431.331	8
431.458	19
431.584	10
431.711	19
431.837	11
431.964	-4
432.09	-6
432.217	-3
432.343	6
432.47	18
432.596	13
432.723	8
432.849	4
432.976	12
433.102	-1
433.229	-1
433.355	25
433.482	69
433.608	144
433.735	132
433.861	146
433.987	141
434.114	240
434.24	201
434.367	66
434.493	18
434.62	7
434.746	20
434.872	16
434.999	9
435.125	0
435.252	3
435.378	8
435.504	8
435.631	23
435.757	4
435.883	23
436.01	14
436.136	3
436.262	18
436.389	22
436.515	38
436.641	30
436.768	27
436.894	19
437.02	-8
437.147	10
437.273	12
437.399	9
437.526	20
437.652	5
437.778	22
437.904	1
438.031	-1
438.157	14
438.283	18
438.409	9
438.536	-9
438.662	15
438.788	9
438.914	6
439.041	21
439.167	37
439.293	8
439.419	22
439.546	25
439.672	30
439.798	12
439.924	24
440.05	20
440.177	44
440.303	10
440.429	0
440.555	20
440.681	27
440.807	25
440.934	12
441.06	23
441.186	3
441.312	0
441.438	16
441.564	18
441.69	31
441.816	28
441.943	-2
442.069	12
442.195	20
442.321	26
442.447	-4
442.573	-3
442.699	14
442.825	6
442.951	2
443.077	22
443.203	22
443.33	4
443.456	-8
443.582	20
443.708	4
443.834	20
443.96	23
444.086	12
444.212	31
444.338	22
444.464	29
444.59	40
444.716	20
444.842	23
444.968	-1
445.094	14
445.22	3
445.346	6
445.472	17
445.598	19
445.724	5
445.85	12
445.976	12
446.102	19
446.228	25
446.354	10
446.48	0
446.605	9
446.731	17
446.857	0
446.983	11
447.109	5
447.235	9
447.361	-11
447.487	8
447.613	0
447.739	-1
447.865	-2
447.99	13
448.116	12
448.242	4
448.368	8
448.494	2
448.62	0
448.746	3
448.872	23
448.997	10
449.123	19
449.249	34
449.375	35
449.501	13
449.627	-22
449.752	18
449.878	12
450.004	0
450.13	21
450.256	-1
450.381	0
450.507	10
450.633	27
450.759	47
450.884	17
451.01	11
451.136	-17
451.262	2
451.388	18
451.513	-4
451.639	16
451.765	18
451.89	25
452.016	7
452.142	3
452.268	20
452.393	25
452.519	9
452.645	10
452.771	13
452.896	-9
453.022	-13
453.148	11
453.273	23
453.399	15
453.525	-12
453.65	12
453.776	23
453.902	37
454.027	28
454.153	39
454.279	21
454.404	13
454.53	29
454.656	41
454.781	-1
454.907	8
455.032	-1
455.158	26
455.284	33
455.409	24
455.535	28
455.66	36
455.786	30
455.912	25
456.037	22
456.163	36
456.288	17
456.414	-11
456.539	-13
456.665	7
456.791	10
456.916	0
457.042	-1
457.167	-3
457.293	17
457.418	23
457.544	17
457.669	12
457.795	18
457.92	16
458.046	16
458.171	9
458.297	3
458.422	-1
458.548	9
458.673	15
458.799	28
458.924	9
459.05	2
459.175	1
459.301	9
459.426	32
459.552	5
459.677	-1
459.803	28
459.928	14
460.053	7
460.179	26
460.304	26
460.43	0
460.555	7
460.681	-3
460.806	12
460.931	-1
461.057	15
461.182	2
461.308	32
461.433	19
461.558	3
461.684	30
461.809	39
461.934	-3
462.06	28
462.185	-8
462.311	-6
462.436	19
462.561	10
462.687	-2
462.812	17
462.937	9
463.063	-4
463.188	-11
463.313	19
463.439	6
463.564	4
463.689	8
463.814	25
463.94	7
464.065	4
464.19	26
464.316	16
464.441	10
464.566	-3
464.692	7
464.817	26
464.942	19
465.067	4
465.193	-7
465.318	-2
465.443	6
465.568	3
465.694	9
465.819	29
465.944	-3
466.069	17
466.194	19
466.32	8
466.445	13
466.57	3
466.695	-3
466.82	7
466.946	19
467.071	0
467.196	7
467.321	28
467.446	5
467.572	-1
467.697	-5
467.822	22
467.947	9
468.072	4
468.197	5
468.323	2
468.448	5
468.573	10
468.698	22
468.823	23
468.948	24
469.073	27
469.198	26
469.324	23
469.449	2
469.574	14
469.699	22
469.824	22
469.949	27
470.074	16
470.199	38
470.324	36
470.449	19
470.574	13
470.7	29
470.825	21
470.95	29
471.075	14
471.2	18
471.325	31
471.45	3
471.575	3
471.7	1
471.825	9
471.95	17
472.075	19
472.2	19
472.325	17
472.45	17
472.575	24
472.7	3
472.825	25
472.95	11
473.075	6
473.2	11
473.325	15
473.45	17
473.575	6
473.7	20
473.825	5
473.95	10
474.075	21
474.2	1
474.325	7
474.45	33
474.574	10
474.699	17
474.824	9
474.949	19
475.074	15
475.199	17
475.324	14
475.449	8
475.574	21
475.699	13
475.824	-4
475.949	13
476.073	1
476.198	9
476.323	14
476.448	7
476.573	3
476.698	20
476.823	34
476.947	21
477.072	18
477.197	0
477.322	-4
477.447	-4
477.572	19
477.697	-2
477.821	0
477.946	37
478.071	25
478.196	28
478.321	14
478.445	16
478.57	-6
478.695	8
478.82	30
478.945	23
479.069	7
479.194	27
479.319	27
479.444	31
479.569	14
479.693	13
479.818	25
479.943	28
480.068	30
480.192	23
480.317	30
480.442	37
480.567	24
480.691	18
480.816	20
480.941	0
481.066	27
481.19	36
481.315	28
481.44	1
481.564	2
481.689	22
481.814	26
481.938	21
482.063	14
482.188	15
482.313	36
482.437	25
482.562	44
482.687	19
482.811	21
482.936	26
483.061	27
483.185	31
483.31	44
483.435	35
483.559	31
483.684	4
483.808	26
483.933	24
484.058	23
484.182	19
484.307	12
484.432	23
484.556	16
484.681	34
484.805	25
484.93	28
485.055	36
485.179	99
485.304	114
485.428	382
485.553	1293
485.678	1789
485.802	1703
485.927	1890
486.051	2721
486.176	1670
486.3	472
486.425	164
486.549	84
486.674	79
486.799	40
486.923	26
487.048	31
487.172	13
487.297	21
487.421	52
487.546	41
487.67	31
487.795	-1
487.919	23
488.044	22
488.168	22
488.293	14
488.417	5
488.542	15
488.666	19
488.791	35
488.915	24
489.04	32
489.164	21
489.289	35
489.413	8
489.538	20
489.662	37
489.786	15
489.911	26
490.035	11
490.16	6
490.284	13
490.409	10
490.533	13
490.658	39
490.782	30
490.906	40
491.031	31
491.155	36
491.28	48
491.404	22
491.528	29
491.653	11
491.777	26
491.902	25
492.026	39
492.15	20
492.275	41
492.399	28
492.524	-1
492.648	36
492.772	26
492.897	18
493.021	2
493.145	33
493.27	42
493.394	24
493.518	7
493.643	11
493.767	43
493.891	18
494.016	14
494.14	10
494.264	3
494.389	31
494.513	17
494.637	15
494.762	24
494.886	36
495.01	23
495.134	24
495.259	24
495.383	20
495.507	-2
495.632	39
495.756	60
495.88	16
496.004	23
496.129	4
496.253	36
496.377	18
496.501	24
496.626	14
496.75	22
496.874	24
496.998	10
497.123	45
497.247	15
497.371	12
497.495	15
497.62	22
497.744	7
497.868	8
497.992	24
498.116	16
498.241	23
498.365	20
498.489	9
498.613	28
498.737	8
498.862	0
498.986	4
499.11	22
499.234	18
499.358	4
499.482	14
499.607	14
499.731	44
499.855	30
499.979	11
500.103	19
500.227	21
500.351	15
500.476	19
500.6	19
500.724	13
500.848	5
500.972	33
501.096	10
501.22	53
501.344	27
501.469	-10
501.593	20
501.717	40
501.841	14
501.965	20
502.089	17
502.213	20
502.337	11
502.461	18
502.585	19
502.709	18
502.834	9
502.958	23
503.082	14
503.206	19
503.33	22
503.454	28
503.578	19
503.702	29
503.826	31
503.95	26
504.074	14
504.198	13
504.322	7
504.446	11
504.57	27
504.694	3
504.818	14
504.942	27
505.066	13
505.19	13
505.314	30
505.438	21
505.562	18
505.686	36
505.81	28
505.934	25
506.058	20
506.182	24
506.306	30
506.43	18
506.554	20
506.678	17
506.802	7
506.926	25
507.05	33
507.174	36
507.298	19
507.422	18
507.546	9
507.67	21
507.794	7
507.918	15
508.042	12
508.165	6
508.289	5
508.413	19
508.537	12
508.661	18
508.785	18
508.909	11
509.033	21
509.157	14
509.281	9
509.405	-4
509.528	39
509.652	34
509.776	12
509.9	24
510.024	13
510.148	-2
510.272	13
510.396	16
510.519	7
510.643	15
510.767	9
510.891	23
511.015	9
511.139	12
511.263	29
511.386	6
511.51	25
511.634	3
511.758	16
511.882	-13
512.006	20
512.129	28
512.253	46
512.377	17
512.501	14
512.625	28
512.748	9
512.872	9
512.996	11
513.12	15
513.244	9
513.367	17
513.491	34
513.615	24
513.739	2
513.862	11
513.986	32
514.11	22
514.234	18
514.358	24
514.481	32
514.605	18
514.729	21
514.853	27
514.976	-4
515.1	18
515.224	33
515.348	11
515.471	3
515.595	24
515.719	14
515.842	19
515.966	16
516.09	33
516.214	27
516.337	64
516.461	22
516.585	27
516.708	24
516.832	27
516.956	26
517.08	17
517.203	-2
517.327	30
517.451	41
517.574	42
517.698	10
517.822	5
517.945	43
518.069	37
518.193	60
518.316	35
518.44	40
518.564	31
518.687	18
518.811	37
518.935	56
519.058	16
519.182	24
519.306	44
519.429	43
519.553	75
519.676	44
519.8	21
519.924	13
520.047	6
520.171	7
520.294	15
520.418	24
520.542	13
520.665	36
520.789	21
520.913	9
521.036	-12
521.16	0
521.283	-4
521.407	10
521.53	8
521.654	3
521.778	15
521.901	16
522.025	-4
522.148	6
522.272	15
522.395	21
522.519	1
522.643	27
522.766	7
522.89	20
523.013	27
523.137	11
523.26	8
523.384	27
523.507	16
523.631	0
523.754	24
523.878	6
524.002	23
524.125	31
524.249	-8
524.372	19
524.496	19
524.619	27
524.743	23
524.866	4
524.99	11
525.113	-5
525.237	16
525.36	8
525.484	14
525.607	-1
525.731	-2
525.854	21
525.978	21
526.101	-1
526.224	8
526.348	4
526.471	16
526.595	10
526.718	11
526.842	13
526.965	36
527.089	13
527.212	6
527.336	0
527.459	31
527.582	17
527.706	25
527.829	38
527.953	20
528.076	-19
528.2	-5
528.323	19
528.446	32
528.57	-1
528.693	11
528.817	-1
528.94	14
529.064	40
529.187	26
529.31	35
529.434	21
529.557	14
529.68	16
529.804	18
529.927	-4
530.051	23
530.174	8
530.297	11
530.421	37
530.544	26
530.668	24
530.791	24
530.914	28
531.038	13
531.161	4
531.284	25
531.408	19
531.531	21
531.654	23
531.778	15
531.901	7
532.024	21
532.148	24
532.271	16
532.394	18
532.518	21
532.641	24
532.764	32
532.888	40
533.011	4
533.134	2
533.258	21
533.381	8
533.504	6
533.628	9
533.751	26
533.874	-3
533.997	16
534.121	-10
534.244	19
534.367	1
534.491	15
534.614	23
534.737	25
534.86	18
534.984	15
535.107	11
535.23	10
535.354	3
535.477	-4
535.6	16
535.723	8
535.847	14
535.97	-3
536.093	28
536.216	21
536.34	41
536.463	18
536.586	24
536.709	14
536.833	31
536.956	13
537.079	10
537.202	16
537.325	3
537.449	-5
537.572	32
537.695	1
537.818	8
537.941	11
538.065	10
538.188	10
538.311	45
538.434	36
538.558	12
538.681	37
538.804	13
538.927	18
539.05	15
539.173	32
539.297	20
539.42	17
539.543	14
539.666	31
539.789	10
539.913	14
540.036	33
540.159	39
540.282	6
540.405	-5
540.528	2
540.651	15
540.775	-5
540.898	30
541.021	8
541.144	17
541.267	5
541.39	4
541.513	26
541.637	4
541.76	-6
541.883	-1
542.006	6
542.129	20
542.252	31
542.375	16
542.498	-2
542.622	18
542.745	25
542.868	16
542.991	51
543.114	34
543.237	38
543.36	52
543.483	29
543.606	13
543.73	34
543.853	14
543.976	8
544.099	7
544.222	8
544.345	8
544.468	16
544.591	16
544.714	26
544.837	27
544.96	-4
545.083	18
545.206	12
545.329	31
545.453	10
545.576	29
545.699	2
545.822	31
545.945	25
546.068	3
546.191	34
546.314	2
546.437	26
546.56	24
546.683	15
546.806	16
546.929	6
547.052	14
547.175	-1
547.298	26
547.421	8
547.544	14
547.667	29
547.79	31
547.913	7
548.036	18
548.159	28
548.282	12
548.405	-2
548.528	15
548.651	-2
548.774	20
548.897	12
549.02	34
549.143	20
549.266	13
549.389	22
549.512	18
549.635	17
549.758	10
549.881	-10
550.004	-6
550.127	14
550.25	11
550.373	9
550.496	20
550.619	19
550.742	0
550.865	-2
550.988	19
551.111	26
551.234	1
551.356	7
551.479	-5
551.602	21
551.725	21
551.848	22
551.971	22
552.094	19
552.217	8
552.34	21
552.463	-1
552.586	12
552.709	8
552.832	8
552.955	16
553.077	18
553.2	27
553.323	-3
553.446	23
553.569	2
553.692	17
553.815	17
553.938	1
554.061	25
554.184	10
554.306	10
554.429	19
554.552	13
554.675	6
554.798	3
554.921	29
555.044	9
555.167	4
555.29	18
555.412	5
555.535	11
555.658	16
555.781	25
555.904	29
556.027	2
556.15	22
556.272	23
556.395	29
556.518	5
556.641	3
556.764	20
556.887	18
557.01	3
557.132	10
557.255	16
557.378	4
557.501	6
557.624	24
557.747	17
557.869	25
557.992	22
558.115	13
558.238	2
558.361	19
558.483	33
558.606	17
558.729	-17
558.852	34
558.975	36
559.098	19
559.22	9
559.343	14
559.466	16
559.589	5
559.712	23
559.834	22
559.957	21
560.08	22
560.203	28
560.325	29
560.448	30
560.571	15
560.694	10
560.817	27
560.939	8
561.062	10
561.185	16
561.308	16
561.43	-12
561.553	12
561.676	11
561.799	20
561.921	7
562.044	15
562.167	4
562.29	32
562.413	24
562.535	20
562.658	4
562.781	15
562.903	6
563.026	19
563.149	35
563.272	18
563.394	14
563.517	20
563.64	0
563.763	17
563.885	15
564.008	22
564.131	19
564.254	5
564.376	8
564.499	-22
564.622	20
564.744	19
564.867	4
564.99	0
565.113	11
565.235	7
565.358	19
565.481	3
565.603	3
565.726	-13
565.849	12
565.971	40
566.094	10
566.217	17
566.34	4
566.462	17
566.585	11
566.708	37
566.83	13
566.953	14
567.076	3
567.198	12
567.321	5
567.444	-2
567.566	9
567.689	4
567.812	11
567.934	21
568.057	21
568.18	15
568.302	1
568.425	6
568.548	8
568.67	17
568.793	23
568.916	10
569.038	15
569.161	24
569.283	16
569.406	28
569.529	6
569.651	13
569.774	-6
569.897	5
570.019	26
570.142	27
570.265	2
570.387	11
570.51	14
570.632	26
570.755	16
570.878	13
571	26
571.123	14
571.246	10
571.368	2
571.491	6
571.613	7
571.736	-9
571.859	19
571.981	0
572.104	9
572.226	11
572.349	2
572.472	20
572.594	12
572.717	10
572.839	2
572.962	19
573.085	15
573.207	11
573.33	10
573.452	6
573.575	21
573.697	10
573.82	14
573.943	10
574.065	18
574.188	15
574.31	36
574.433	19
574.555	35
574.678	10
574.801	12
574.923	17
575.046	17
575.168	7
575.291	2
575.413	9
575.536	2
575.659	16
575.781	-6
575.904	5
576.026	19
576.149	6
576.271	39
576.394	19
576.516	9
576.639	36
576.761	3
576.884	-1
577.007	18
577.129	12
577.252	0
577.374	14
577.497	14
577.619	10
577.742	7
577.864	25
577.987	27
578.109	36
578.232	31
578.354	33
578.477	20
578.599	3
578.722	-2
578.844	7
578.967	12
579.089	8
579.212	3
579.334	24
579.457	9
579.579	12
579.702	0
579.824	20
579.947	8
580.069	-12
580.192	-13
580.314	21
580.437	8
580.559	39
580.682	28
580.804	19
580.927	28
581.049	52
581.172	12
581.294	13
581.417	20
581.539	14
581.662	28
581.784	30
581.907	33
582.029	9
582.152	-8
582.274	28
582.396	13
582.519	9
582.641	-1
582.764	2
582.886	38
583.009	13
583.131	1
583.254	15
583.376	14
583.499	22
583.621	23
583.743	29
583.866	24
583.988	11
584.111	20
584.233	16
584.356	36
584.478	25
584.601	1
584.723	10
584.845	25
584.968	9
585.09	-12
585.213	2
585.335	4
585.458	2
585.58	19
585.702	31
585.825	27
585.947	15
586.07	6
586.192	-8
586.315	29
586.437	24
586.559	4
586.682	-10
586.804	-1
586.927	26
587.049	-4
587.171	10
587.294	11
587.416	23
587.539	14
587.661	-4
587.783	7
587.906	16
588.028	14
588.151	13
588.273	31
588.395	3
588.518	0
588.64	30
588.763	22
588.885	17
589.007	22
589.13	0
589.252	-2
589.375	9
589.497	15
589.619	13
589.742	21
589.864	21
589.986	17
590.109	0
590.231	7
590.354	16
590.476	15
590.598	5
590.721	-3
590.843	24
590.965	18
591.088	23
591.21	29
591.332	9
591.455	-20
591.577	14
591.7	22
591.822	24
591.944	6
592.067	5
592.189	4
592.311	18
592.434	7
592.556	26
592.678	14
592.801	-7
592.923	26
593.045	12
593.168	5
593.29	16
593.412	25
593.535	9
593.657	-6
593.779	22
593.902	22
594.024	23
594.146	24
594.269	34
594.391	-1
594.513	17
594.636	4
594.758	-4
594.88	32
595.003	19
595.125	20
595.247	23
595.37	15
595.492	3
595.614	32
595.737	23
595.859	8
595.981	21
596.104	16
596.226	1
596.348	8
596.471	9
596.593	0
596.715	12
596.838	14
596.96	22
597.082	21
597.204	23
597.327	24
597.449	12
597.571	21
597.694	19
597.816	4
597.938	-2
598.061	-2
598.183	4
598.305	12
598.427	24
598.55	36
598.672	26
598.794	12
598.917	-1
599.039	2
599.161	25
599.283	28
599.406	15
599.528	17
599.65	27
599.773	18
599.895	36
600.017	28
600.139	16
600.262	2
600.384	20
600.506	16
600.628	25
600.751	26
600.873	7
600.995	14
601.118	28
601.24	-3
601.362	31
601.484	34
601.607	24
601.729	16
601.851	9
601.973	22
602.096	13
602.218	43
602.34	2
602.462	27
602.585	27
602.707	0
602.829	8
602.951	12
603.074	-7
603.196	29
603.318	19
603.44	34
603.563	22
603.685	15
603.807	14
603.929	0
604.052	23
604.174	38
604.296	21
604.418	7
604.541	26
604.663	18
604.785	20
604.907	19
605.03	-18
605.152	34
605.274	14
605.396	16
605.519	23
605.641	12
605.763	17
605.885	17
606.008	26
606.13	27
606.252	35
606.374	-9
606.496	7
606.619	16
606.741	15
606.863	39
606.985	51
607.108	27
607.23	23
607.352	18
607.474	4
607.596	14
607.719	8
607.841	43
607.963	12
608.085	24
608.207	45
608.33	9
608.452	8
608.574	14
608.696	27
608.819	27
608.941	16
609.063	2
609.185	8
609.307	13
609.43	50
609.552	12
609.674	-10
609.796	32
609.918	34
610.041	15
610.163	31
610.285	19
610.407	15
610.529	15
610.652	11
610.774	32
610.896	18
611.018	21
611.14	8
611.263	6
611.385	1
611.507	11
611.629	18
611.751	19
611.873	36
611.996	15
612.118	18
612.24	2
612.362	22
612.484	19
612.607	17
612.729	30
612.851	19
612.973	15
613.095	15
613.218	19
613.34	37
613.462	25
613.584	12
613.706	14
613.828	32
613.951	34
614.073	16
614.195	-6
614.317	27
614.439	28
614.561	27
614.684	20
614.806	22
614.928	23
615.05	19
615.172	30
615.294	23
615.417	25
615.539	7
615.661	20
615.783	40
615.905	36
616.027	70
616.15	133
616.272	85
616.394	58
616.516	46
616.638	29
616.76	22
616.883	22
617.005	13
617.127	11
617.249	22
617.371	11
617.493	18
617.615	28
617.738	27
617.86	14
617.982	9
618.104	0
618.226	-6
618.348	3
618.471	2
618.593	43
618.715	16
618.837	17
618.959	18
619.081	44
619.203	12
619.326	20
619.448	19
619.57	22
619.692	24
619.814	29
619.936	18
620.058	23
620.181	20
620.303	16
620.425	13
620.547	-2
620.669	14
620.791	14
620.913	-6
621.036	-5
621.158	23
621.28	12
621.402	-1
621.524	-8
621.646	18
621.768	-6
621.891	-8
622.013	2
622.135	10
622.257	10
622.379	14
622.501	-1
622.623	11
622.745	2
622.868	16
622.99	0
623.112	15
623.234	8
623.356	21
623.478	6
623.6	6
623.722	5
623.845	24
623.967	7
624.089	5
624.211	3
624.333	-4
624.455	12
624.577	-6
624.699	11
624.822	23
624.944	-1
625.066	10
625.188	28
625.31	23
625.432	47
625.554	22
625.676	26
625.799	15
625.921	20
626.043	19
626.165	18
626.287	-8
626.409	8
626.531	3
626.653	5
626.775	27
626.898	5
627.02	5
627.142	31
627.264	21
627.386	-1
627.508	16
627.63	2
627.752	17
627.874	7
627.997	11
628.119	23
628.241	27
628.363	10
628.485	25
628.607	2
628.729	9
628.851	-1
628.973	21
629.096	14
629.218	14
629.34	14
629.462	0
629.584	3
629.706	-1
629.828	18
629.95	16
630.072	5
630.195	2
630.317	11
630.439	4
630.561	-1
630.683	6
630.805	14
630.927	18
631.049	1
631.171	3
631.293	13
631.416	4
631.538	28
631.66	2
631.782	10
631.904	22
632.026	4
632.148	26
632.27	3
632.392	12
632.514	16
632.637	11
632.759	15
632.881	-12
633.003	7
633.125	-15
633.247	12
633.369	12
633.491	6
633.613	25
633.735	-6
633.858	34
633.98	25
634.102	4
634.224	2
634.346	0
634.468	0
634.59	19
634.712	10
634.834	18
634.956	-5
635.078	6
635.201	2
635.323	9
635.445	5
635.567	-9
635.689	26
635.811	8
635.933	14
636.055	15
636.177	15
636.299	28
636.421	-3
636.544	1
636.666	9
636.788	19
636.91	30
637.032	16
637.154	28
637.276	56
637.398	28
637.52	13
637.642	26
637.764	0
637.887	22
638.009	14
638.131	30
638.253	26
638.375	32
638.497	10
638.619	1
638.741	13
638.863	-12
638.985	5
639.107	14
639.23	8
639.352	13
639.474	7
639.596	16
639.718	10
639.84	-5
639.962	17
640.084	34
640.206	16
640.328	9
640.45	27
640.573	14
640.695	8
640.817	15
640.939	19
641.061	-5
641.183	8
641.305	11
641.427	-1
641.549	-13
641.671	-3
641.793	4
641.915	27
642.038	9
642.16	26
642.282	19
642.404	13
642.526	13
642.648	16
642.77	18
642.892	14
643.014	38
643.136	13
643.258	18
643.381	30
643.503	15
643.625	9
643.747	14
643.869	13
643.991	20
644.113	10
644.235	11
644.357	16
644.479	31
644.601	6
644.723	6
644.846	14
644.968	9
645.09	15
645.212	-1
645.334	12
645.456	20
645.578	7
645.7	29
645.822	10
645.944	9
646.066	7
646.188	3
646.311	33
646.433	10
646.555	51
646.677	65
646.799	35
646.921	17
647.043	26
647.165	11
647.287	3
647.409	22
647.531	29
647.654	-4
647.776	12
647.898	22
648.02	6
648.142	-2
648.264	15
648.386	-9
648.508	-4
648.63	18
648.752	14
648.874	8
648.997	10
649.119	35
649.241	5
649.363	36
649.485	27
649.607	3
649.729	2
649.851	3
649.973	3
650.095	14
650.217	-6
650.34	-8
650.462	13
650.584	0
650.706	30
650.828	7
650.95	12
651.072	24
651.194	6
651.316	4
651.438	-1
651.56	-2
651.683	5
651.805	14
651.927	13
652.049	7
652.171	12
652.293	10
652.415	4
652.537	7
652.659	-1
652.781	26
652.903	17
653.026	20
653.148	19
653.27	19
653.392	10
653.514	7
653.636	6
653.758	-1
653.88	2
654.002	-3
654.124	11
654.247	20
654.369	34
654.491	30
654.613	34
654.735	5
654.857	34
654.979	16
655.101	23
655.223	47
655.345	27
655.468	40
655.59	26
655.712	23
655.834	20
655.956	34
656.078	34
656.2	52
656.322	36
656.444	34
656.566	51
656.689	54
656.811	58
656.933	86
657.055	109
657.177	138
657.299	263
657.421	530
657.543	1946
657.665	12736
657.787	15202
657.91	15368
658.032	15665
658.154	4774
658.276	4546
658.398	1368
658.52	1095
658.642	526
658.764	609
658.886	298
659.009	427
659.131	256
659.253	298
659.375	186
659.497	238
659.619	145
659.741	224
659.863	115
659.985	153
660.108	102
660.23	160
660.352	82
660.474	158
660.596	84
660.718	152
660.84	77
660.962	117
661.084	69
661.207	98
661.329	67
661.451	115
661.573	56
661.695	125
661.817	65
661.939	110
662.061	71
662.184	79
662.306	51
662.428	86
662.55	56
662.672	70
662.794	47
662.916	67
663.038	32
663.161	100
663.283	44
663.405	84
663.527	48
663.649	63
663.771	21
663.893	51
664.015	35
664.138	35
664.26	39
664.382	59
664.504	23
664.626	40
664.748	32
664.87	40
664.992	47
665.115	62
665.237	19
665.359	43
665.481	24
665.603	36
665.725	20
665.847	23
665.97	16
666.092	54
666.214	41
666.336	23
666.458	26
666.58	44
666.702	4
666.825	22
666.947	2
667.069	33
667.191	10
667.313	44
667.435	16
667.557	22
667.68	32
667.802	26
667.924	22
668.046	30
668.168	20
668.29	49
668.412	16
668.535	32
668.657	9
668.779	23
668.901	30
669.023	36
669.145	6
669.267	44
669.39	21
669.512	20
669.634	-1
669.756	21
669.878	26
670	46
670.123	24
670.245	43
670.367	16
670.489	33
670.611	24
670.733	18
670.856	3
670.978	28
671.1	15
671.222	21
671.344	4
671.466	16
671.589	2
671.711	20
671.833	21
671.955	46
672.077	10
672.199	45
672.322	49
672.444	26
672.566	24
672.688	13
672.81	24
672.932	35
673.055	25
673.177	2
673.299	20
673.421	0
673.543	4
673.665	25
673.788	35
673.91	7
674.032	-2
674.154	11
674.276	4
674.399	13
674.521	19
674.643	39
674.765	14
674.887	36
675.009	18
675.132	22
675.254	19
675.376	23
675.498	25
675.62	30
675.743	10
675.865	26
675.987	6
676.109	24
676.231	17
676.354	42
676.476	25
676.598	33
676.72	14
676.842	15
676.965	5
677.087	12
677.209	7
677.331	22
677.453	24
677.576	26
677.698	27
677.82	45
677.942	3
678.064	13
678.187	28
678.309	10
678.431	19
678.553	20
678.675	26
678.798	32
678.92	22
679.042	33
679.164	8
679.286	28
679.409	14
679.531	-13
679.653	10
679.775	17
679.898	14
680.02	24
680.142	8
680.264	39
680.386	-4
680.509	27
680.631	23
680.753	12
680.875	-1
680.998	11
681.12	0
681.242	16
681.364	-9
681.486	3
681.609	7
681.731	14
681.853	-12
681.975	21
682.098	24
682.22	39
682.342	16
682.464	46
682.587	10
682.709	2
682.831	-4
682.953	0
683.076	6
683.198	11
683.32	6
683.442	19
683.565	24
683.687	-3
683.809	-5
683.931	-6
684.054	16
684.176	19
684.298	17
684.42	10
684.543	15
684.665	11
684.787	9
684.909	12
685.032	22
685.154	8
685.276	34
685.398	21
685.521	-7
685.643	18
685.765	23
685.887	32
686.01	12
686.132	5
686.254	18
686.377	29
686.499	10
686.621	17
686.743	7
686.866	9
686.988	26
687.11	42
687.232	14
687.355	-1
687.477	14
687.599	21
687.722	-5
687.844	9
687.966	25
688.088	29
688.211	26
688.333	25
688.455	10
688.578	37
688.7	19
688.822	15
688.944	-9
689.067	37
689.189	8
689.311	-8
689.434	13
689.556	27
689.678	20
689.801	-5
689.923	23
690.045	29
690.167	28
690.29	23
690.412	-3
690.534	14
690.657	2
690.779	11
690.901	11
691.024	10
691.146	-6
691.268	0
691.391	27
691.513	32
691.635	17
691.758	13
691.88	3
692.002	-3
692.125	0
692.247	19
692.369	4
692.492	-2
692.614	13
692.736	16
692.859	7
692.981	8
693.103	6
693.226	4
693.348	17
693.47	14
693.593	21
693.715	-8
693.837	-3
693.96	11
694.082	-20
694.204	21
694.327	21
694.449	15
694.571	7
694.694	26
694.816	10
694.938	10
695.061	24
695.183	33
695.305	9
695.428	28
695.55	11
695.672	22
695.795	12
695.917	38
696.04	7
696.162	24
696.284	29
696.407	14
696.529	12
696.651	28
696.774	24
696.896	28
697.019	15
697.141	10
697.263	-13
697.386	2
697.508	9
697.63	25
697.753	10
697.875	15
697.998	20
698.12	18
698.242	22
698.365	17
698.487	0
698.61	27
698.732	22
698.854	17
698.977	12
699.099	23
699.221	9
699.344	18
699.466	21
699.589	12
699.711	14
699.834	0
699.956	3
700.078	15
700.201	8
700.323	8
700.446	25
700.568	6
700.69	14
700.813	12
700.935	19
701.058	2
701.18	10
701.302	9
701.425	5
701.547	11
701.67	1
701.792	15
701.915	2
702.037	-8
702.159	10
702.282	5
702.404	4
702.527	10
702.649	16
702.772	15
702.894	31
703.017	22
703.139	29
703.261	29
703.384	9
703.506	-2
703.629	-10
703.751	21
703.874	10
703.996	-14
704.119	0
704.241	32
704.364	-3
704.486	11
704.608	10
704.731	10
704.853	22
704.976	-6
705.098	-4
705.221	-1
705.343	6
705.466	25
705.588	13
705.711	15
705.833	24
705.956	-1
706.078	18
706.201	0
706.323	6
706.446	-10
